PE UV       SUBTECH     SPECTRUM    ASCII       PEDS        4.00        
   -1
BL30b50.asc
22/02/11
10:46:48.00
22/02/11
10:46:48.00
user
BL30b50
300.000000
1
Lambda 950
950L1311251
PerkinElmer UV WinLab 7.1.0.68 / 2.02.11 Lambda 900 UV/VIS/NIR, May 23 2018 11:23:04

0
0
3350/servo 860.8/2
0
0
UV/VIS
1
1
1
RBeamAtt,SBeamAtt,multi purpose optical bench
0
0
0
0
Program
Program
3350/servo 860.8/2
3350/1 860.8/1
3350/1 860.8/1
0
4
 
 
 
0
 
860.8
319.2
860.8
Front
100
 
S:100 R:100
 
0
0
0
 
0
 
 
 
0
 
 
0
0
0
0
0
 
 
 
 
0
0


0
0
#HDR
-1
-1
#GR
nm
%T
1.0
0.0
2500.000000
-4.000000
551
8
32.611419
3.046026
#DATA
2500.000000	31.560461
2496.000000	32.592051
2492.000000	30.369100
2488.000000	32.131164
2484.000000	31.400372
2480.000000	31.198084
2476.000000	32.421798
2472.000000	31.217156
2468.000000	31.917975
2464.000000	30.667725
2460.000000	30.286346
2456.000000	31.768142
2452.000000	32.029395
2448.000000	32.611419
2444.000000	31.868532
2440.000000	31.447569
2436.000000	31.756295
2432.000000	32.148574
2428.000000	31.491401
2424.000000	31.452686
2420.000000	31.170993
2416.000000	32.392308
2412.000000	31.653056
2408.000000	31.710826
2404.000000	32.160963
2400.000000	31.374115
2396.000000	31.908920
2392.000000	31.354446
2388.000000	31.420136
2384.000000	31.749938
2380.000000	31.552531
2376.000000	31.090258
2372.000000	31.594727
2368.000000	31.800242
2364.000000	31.449973
2360.000000	31.188919
2356.000000	30.793299
2352.000000	30.925409
2348.000000	31.432425
2344.000000	31.315074
2340.000000	30.853843
2336.000000	30.848971
2332.000000	31.189765
2328.000000	31.168637
2324.000000	30.934052
2320.000000	30.698099
2316.000000	30.667381
2312.000000	30.900448
2308.000000	30.837260
2304.000000	30.734770
2300.000000	30.318703
2296.000000	30.173285
2292.000000	30.468339
2288.000000	30.179614
2284.000000	30.476935
2280.000000	30.471050
2276.000000	30.091102
2272.000000	30.114052
2268.000000	30.148628
2264.000000	30.002124
2260.000000	29.980192
2256.000000	29.714480
2252.000000	30.060636
2248.000000	30.001914
2244.000000	29.935716
2240.000000	29.932388
2236.000000	29.874549
2232.000000	30.102251
2228.000000	29.886728
2224.000000	30.068350
2220.000000	29.948332
2216.000000	29.779255
2212.000000	29.820187
2208.000000	29.845141
2204.000000	30.014130
2200.000000	30.141973
2196.000000	30.066397
2192.000000	30.123402
2188.000000	30.150719
2184.000000	30.196021
2180.000000	30.382379
2176.000000	30.272671
2172.000000	30.115300
2168.000000	30.262127
2164.000000	30.441278
2160.000000	30.379572
2156.000000	30.478628
2152.000000	30.554877
2148.000000	30.510249
2144.000000	30.299010
2140.000000	30.307489
2136.000000	30.342336
2132.000000	30.478089
2128.000000	30.513841
2124.000000	30.292476
2120.000000	30.180655
2116.000000	30.273786
2112.000000	30.334047
2108.000000	30.156931
2104.000000	30.016090
2100.000000	30.032340
2096.000000	30.018493
2092.000000	30.033686
2088.000000	29.861654
2084.000000	29.808478
2080.000000	29.929674
2076.000000	29.771383
2072.000000	29.692779
2068.000000	29.660862
2064.000000	29.605958
2060.000000	29.577211
2056.000000	29.562991
2052.000000	29.525222
2048.000000	29.506548
2044.000000	29.435804
2040.000000	29.323939
2036.000000	29.302551
2032.000000	29.437747
2028.000000	29.480050
2024.000000	29.349068
2020.000000	29.290858
2016.000000	29.235772
2012.000000	29.189683
2008.000000	29.204277
2004.000000	29.194230
2000.000000	29.101860
1996.000000	29.066609
1992.000000	29.024562
1988.000000	29.021605
1984.000000	28.815250
1980.000000	28.782758
1976.000000	28.937098
1972.000000	28.965421
1968.000000	28.865308
1964.000000	28.718751
1960.000000	28.781736
1956.000000	28.819314
1952.000000	28.703161
1948.000000	28.658379
1944.000000	28.507872
1940.000000	28.406798
1936.000000	28.452134
1932.000000	28.559440
1928.000000	28.521581
1924.000000	28.393214
1920.000000	28.370303
1916.000000	28.356989
1912.000000	28.410690
1908.000000	28.393977
1904.000000	28.230684
1900.000000	28.312925
1896.000000	28.379727
1892.000000	28.374621
1888.000000	28.454038
1884.000000	28.417210
1880.000000	28.201639
1876.000000	28.174076
1872.000000	28.169544
1868.000000	28.207384
1864.000000	28.147716
1860.000000	28.202193
1856.000000	28.158280
1852.000000	28.274960
1848.000000	28.073944
1844.000000	28.130683
1840.000000	28.176818
1836.000000	28.009954
1832.000000	28.145112
1828.000000	28.090126
1824.000000	28.024164
1820.000000	28.041723
1816.000000	27.954164
1812.000000	27.915177
1808.000000	28.015677
1804.000000	27.907909
1800.000000	28.098852
1796.000000	27.823318
1792.000000	27.811564
1788.000000	27.896137
1784.000000	27.805249
1780.000000	27.754004
1776.000000	27.758213
1772.000000	27.787152
1768.000000	27.776916
1764.000000	27.987993
1760.000000	27.737587
1756.000000	27.892222
1752.000000	27.907068
1748.000000	27.713967
1744.000000	27.897652
1740.000000	27.939294
1736.000000	27.877191
1732.000000	27.746958
1728.000000	27.701346
1724.000000	27.787037
1720.000000	27.675387
1716.000000	27.661792
1712.000000	27.766536
1708.000000	27.611350
1704.000000	27.719512
1700.000000	27.583920
1696.000000	27.620515
1692.000000	27.847167
1688.000000	27.520779
1684.000000	27.596663
1680.000000	27.554208
1676.000000	27.628343
1672.000000	27.555005
1668.000000	27.619611
1664.000000	27.493262
1660.000000	27.505965
1656.000000	27.610448
1652.000000	27.544373
1648.000000	27.551158
1644.000000	27.506503
1640.000000	27.264567
1636.000000	27.471338
1632.000000	27.224495
1628.000000	27.228365
1624.000000	27.411936
1620.000000	27.447467
1616.000000	27.519585
1612.000000	27.250278
1608.000000	27.434423
1604.000000	27.435670
1600.000000	27.377621
1596.000000	27.324834
1592.000000	27.205073
1588.000000	27.225240
1584.000000	27.219692
1580.000000	27.117806
1576.000000	27.166036
1572.000000	27.090815
1568.000000	26.911798
1564.000000	27.122033
1560.000000	27.134472
1556.000000	27.092732
1552.000000	27.235015
1548.000000	27.043136
1544.000000	27.007139
1540.000000	26.994354
1536.000000	27.049475
1532.000000	26.917639
1528.000000	26.965919
1524.000000	26.949910
1520.000000	26.912604
1516.000000	26.970265
1512.000000	26.872923
1508.000000	26.793411
1504.000000	27.088833
1500.000000	27.025100
1496.000000	26.855209
1492.000000	26.858419
1488.000000	26.847613
1484.000000	26.750796
1480.000000	26.925054
1476.000000	26.848271
1472.000000	26.788255
1468.000000	26.877922
1464.000000	26.853668
1460.000000	26.877233
1456.000000	26.867663
1452.000000	26.802221
1448.000000	26.748904
1444.000000	26.708555
1440.000000	26.683268
1436.000000	26.789659
1432.000000	26.599318
1428.000000	26.706206
1424.000000	26.574289
1420.000000	26.588803
1416.000000	26.668044
1412.000000	26.669812
1408.000000	26.795253
1404.000000	26.671121
1400.000000	26.585137
1396.000000	26.703928
1392.000000	26.620615
1388.000000	26.584285
1384.000000	26.626445
1380.000000	26.603415
1376.000000	26.638456
1372.000000	26.603403
1368.000000	26.549116
1364.000000	26.501551
1360.000000	26.443366
1356.000000	26.433268
1352.000000	26.463288
1348.000000	26.542015
1344.000000	26.561192
1340.000000	26.609256
1336.000000	26.552486
1332.000000	26.473081
1328.000000	26.548994
1324.000000	26.558242
1320.000000	26.589964
1316.000000	26.633765
1312.000000	26.548523
1308.000000	26.486769
1304.000000	26.568396
1300.000000	26.477055
1296.000000	26.511942
1292.000000	26.519394
1288.000000	26.366557
1284.000000	26.451654
1280.000000	26.521183
1276.000000	26.398681
1272.000000	26.379703
1268.000000	26.391002
1264.000000	26.320863
1260.000000	26.351412
1256.000000	26.247240
1252.000000	26.342882
1248.000000	26.497014
1244.000000	26.429614
1240.000000	26.365401
1236.000000	26.343352
1232.000000	26.282476
1228.000000	26.264861
1224.000000	26.325460
1220.000000	26.227309
1216.000000	26.266150
1212.000000	26.316968
1208.000000	26.232162
1204.000000	26.342754
1200.000000	26.332202
1196.000000	26.350777
1192.000000	26.301677
1188.000000	26.300091
1184.000000	26.219227
1180.000000	26.210724
1176.000000	26.190551
1172.000000	26.142376
1168.000000	26.128408
1164.000000	26.200006
1160.000000	26.206926
1156.000000	26.359440
1152.000000	26.202284
1148.000000	26.175958
1144.000000	26.193528
1140.000000	26.235897
1136.000000	26.146537
1132.000000	26.127786
1128.000000	26.097974
1124.000000	26.191924
1120.000000	26.142479
1116.000000	26.072287
1112.000000	25.913407
1108.000000	25.945757
1104.000000	26.155398
1100.000000	25.943041
1096.000000	25.907095
1092.000000	25.893304
1088.000000	26.093924
1084.000000	26.024056
1080.000000	25.851692
1076.000000	25.876829
1072.000000	25.875911
1068.000000	26.056665
1064.000000	25.903977
1060.000000	25.990917
1056.000000	25.906165
1052.000000	25.858554
1048.000000	25.843784
1044.000000	25.713550
1040.000000	25.968016
1036.000000	25.744239
1032.000000	25.505175
1028.000000	25.696445
1024.000000	25.593889
1020.000000	25.780996
1016.000000	25.690260
1012.000000	25.636286
1008.000000	25.669715
1004.000000	25.668162
1000.000000	25.632632
996.000000	25.612132
992.000000	25.775855
988.000000	25.528189
984.000000	25.467111
980.000000	25.507898
976.000000	25.438014
972.000000	25.760192
968.000000	25.644223
964.000000	25.387506
960.000000	25.487802
956.000000	25.439064
952.000000	25.420464
948.000000	25.429653
944.000000	25.667061
940.000000	25.400679
936.000000	25.367448
932.000000	25.266229
928.000000	25.345262
924.000000	25.486418
920.000000	25.249589
916.000000	25.438822
912.000000	25.391523
908.000000	25.410710
904.000000	25.387577
900.000000	25.432012
896.000000	25.444175
892.000000	25.558787
888.000000	25.468825
884.000000	25.371305
880.000000	25.347673
876.000000	25.543472
872.000000	25.390997
868.000000	25.368357
864.000000	25.421537
860.000000	25.184579
856.000000	25.185784
852.000000	25.138289
848.000000	25.239949
844.000000	25.238918
840.000000	25.294644
836.000000	25.267234
832.000000	25.286939
828.000000	25.285303
824.000000	25.270744
820.000000	25.313344
816.000000	25.325090
812.000000	25.327875
808.000000	25.368201
804.000000	25.321659
800.000000	25.393520
796.000000	25.393212
792.000000	25.360420
788.000000	25.363599
784.000000	25.361935
780.000000	25.329092
776.000000	25.343247
772.000000	25.332208
768.000000	25.297834
764.000000	25.287379
760.000000	25.284317
756.000000	25.232096
752.000000	25.230566
748.000000	25.155532
744.000000	25.122272
740.000000	25.070584
736.000000	25.028941
732.000000	24.971292
728.000000	24.917665
724.000000	24.852902
720.000000	24.772591
716.000000	24.719361
712.000000	24.649532
708.000000	24.594735
704.000000	24.497039
700.000000	24.409381
696.000000	24.324111
692.000000	24.231289
688.000000	24.172559
684.000000	24.113610
680.000000	24.033134
676.000000	23.935297
672.000000	23.857698
668.000000	23.776249
664.000000	23.685329
660.000000	23.607240
656.000000	23.525041
652.000000	23.432443
648.000000	23.347726
644.000000	23.266519
640.000000	23.180999
636.000000	23.063167
632.000000	23.001161
628.000000	22.875498
624.000000	22.776679
620.000000	22.649190
616.000000	22.522920
612.000000	22.389369
608.000000	22.239161
604.000000	22.046376
600.000000	21.860584
596.000000	21.655388
592.000000	21.419659
588.000000	21.155571
584.000000	20.878094
580.000000	20.568635
576.000000	20.237881
572.000000	19.868647
568.000000	19.498254
564.000000	19.124098
560.000000	18.734856
556.000000	18.348054
552.000000	17.966153
548.000000	17.595318
544.000000	17.244178
540.000000	16.906767
536.000000	16.590745
532.000000	16.292690
528.000000	16.013919
524.000000	15.753041
520.000000	15.503077
516.000000	15.264460
512.000000	15.047070
508.000000	14.839788
504.000000	14.652723
500.000000	14.483543
496.000000	14.307799
492.000000	14.159935
488.000000	14.004464
484.000000	13.872113
480.000000	13.738042
476.000000	13.613240
472.000000	13.514025
468.000000	13.420635
464.000000	13.315369
460.000000	13.214024
456.000000	13.108647
452.000000	12.995597
448.000000	12.886487
444.000000	12.756689
440.000000	12.612069
436.000000	12.478785
432.000000	12.347614
428.000000	12.221741
424.000000	12.107548
420.000000	12.001096
416.000000	11.882449
412.000000	11.762812
408.000000	11.634524
404.000000	11.520507
400.000000	11.385441
396.000000	11.231064
392.000000	11.097192
388.000000	10.938389
384.000000	10.775086
380.000000	10.590195
376.000000	10.369801
372.000000	10.140000
368.000000	9.824068
364.000000	9.385719
360.000000	8.795897
356.000000	8.002796
352.000000	6.952379
348.000000	5.722975
344.000000	4.491697
340.000000	3.601543
336.000000	3.207572
332.000000	3.109592
328.000000	3.079164
324.000000	3.071926
320.000000	3.067319
316.000000	3.046026
312.000000	3.049298
308.000000	3.050023
304.000000	3.052835
300.000000	3.065733
