PE IR                   SPECTRUM    ASCII       PEDS        1.60        
  -1
~SP.SP
22/02/22
10:03:23.00
22/02/22
10:03:23.00
Administrator

650.000000
4









SPECTRUM 100,CPU32 MAIN 00.02.7000 27-JANUARY-2006 11:32:41
MCT
MIR
OPTKBR
76073
1.000000

4.000000
STRONG
RATIO
SPECTRUM
MAGNITUDE
MIR INT SPHERE
DOUBLE

COMBINED


0


#HDR
-1
-1
#GR
CM-1
%T
0.00002384185791015625
0.0
4000.000000
-1.000000
3351
8
29.598111
7.034012
#DATA
4000.000000	25.595376 
3999.000000	25.584501 
3998.000000	25.573680 
3997.000000	25.546755 
3996.000000	25.507566 
3995.000000	25.467377 
3994.000000	25.440616 
3993.000000	25.440115 
3992.000000	25.470190 
3991.000000	25.520196 
3990.000000	25.566959 
3989.000000	25.588419 
3988.000000	25.577651 
3987.000000	25.544580 
3986.000000	25.505794 
3985.000000	25.472723 
3984.000000	25.446586 
3983.000000	25.421907 
3982.000000	25.395481 
3981.000000	25.373164 
3980.000000	25.366411 
3979.000000	25.379859 
3978.000000	25.402448 
3977.000000	25.413925 
3976.000000	25.402526 
3975.000000	25.375460 
3974.000000	25.350868 
3973.000000	25.339907 
3972.000000	25.339552 
3971.000000	25.342461 
3970.000000	25.349230 
3969.000000	25.367818 
3968.000000	25.401464 
3967.000000	25.440688 
3966.000000	25.468752 
3965.000000	25.474807 
3964.000000	25.461757 
3963.000000	25.442810 
3962.000000	25.431317 
3961.000000	25.433235 
3960.000000	25.446456 
3959.000000	25.464255 
3958.000000	25.477515 
3957.000000	25.477104 
3956.000000	25.458021 
3955.000000	25.422027 
3954.000000	25.374982 
3953.000000	25.323977 
3952.000000	25.280776 
3951.000000	25.263994 
3950.000000	25.290102 
3949.000000	25.355411 
3948.000000	25.428774 
3947.000000	25.469655 
3946.000000	25.458963 
3945.000000	25.413667 
3944.000000	25.370635 
3943.000000	25.356168 
3942.000000	25.367777 
3941.000000	25.383728 
3940.000000	25.388330 
3939.000000	25.383866 
3938.000000	25.378524 
3937.000000	25.372876 
3936.000000	25.360878 
3935.000000	25.339869 
3934.000000	25.314352 
3933.000000	25.290233 
3932.000000	25.272106 
3931.000000	25.264405 
3930.000000	25.271470 
3929.000000	25.292508 
3928.000000	25.316685 
3927.000000	25.327769 
3926.000000	25.314880 
3925.000000	25.280289 
3924.000000	25.238445 
3923.000000	25.209710 
3922.000000	25.208745 
3921.000000	25.230827 
3920.000000	25.251815 
3919.000000	25.253307 
3918.000000	25.244769 
3917.000000	25.249469 
3916.000000	25.269409 
3915.000000	25.283965 
3914.000000	25.282897 
3913.000000	25.280137 
3912.000000	25.287960 
3911.000000	25.296715 
3910.000000	25.281223 
3909.000000	25.225266 
3908.000000	25.133852 
3907.000000	25.030404 
3906.000000	24.945921 
3905.000000	24.904393 
3904.000000	24.907585 
3903.000000	24.931074 
3902.000000	24.948535 
3901.000000	24.959037 
3900.000000	24.979082 
3899.000000	25.011795 
3898.000000	25.040616 
3897.000000	25.053406 
3896.000000	25.056870 
3895.000000	25.065899 
3894.000000	25.090100 
3893.000000	25.137079 
3892.000000	25.206810 
3891.000000	25.276223 
3890.000000	25.298897 
3889.000000	25.252835 
3888.000000	25.173702 
3887.000000	25.114750 
3886.000000	25.089353 
3885.000000	25.062037 
3884.000000	24.998082 
3883.000000	24.924614 
3882.000000	24.909507 
3881.000000	24.977614 
3880.000000	25.076988 
3879.000000	25.127781 
3878.000000	25.101568 
3877.000000	25.044676 
3876.000000	25.017283 
3875.000000	25.032700 
3874.000000	25.050645 
3873.000000	25.018993 
3872.000000	24.936847 
3871.000000	24.863437 
3870.000000	24.846612 
3869.000000	24.857920 
3868.000000	24.832155 
3867.000000	24.772328 
3866.000000	24.745704 
3865.000000	24.789138 
3864.000000	24.874887 
3863.000000	24.952826 
3862.000000	24.992125 
3861.000000	24.986945 
3860.000000	24.940154 
3859.000000	24.866749 
3858.000000	24.788458 
3857.000000	24.718698 
3856.000000	24.657656 
3855.000000	24.608362 
3854.000000	24.596910 
3853.000000	24.645340 
3852.000000	24.706431 
3851.000000	24.730840 
3850.000000	24.752455 
3849.000000	24.805131 
3848.000000	24.867625 
3847.000000	24.906580 
3846.000000	24.912709 
3845.000000	24.899447 
3844.000000	24.881202 
3843.000000	24.860225 
3842.000000	24.823562 
3841.000000	24.762649 
3840.000000	24.688358 
3839.000000	24.625265 
3838.000000	24.593906 
3837.000000	24.602032 
3836.000000	24.640976 
3835.000000	24.693768 
3834.000000	24.746522 
3833.000000	24.792106 
3832.000000	24.828858 
3831.000000	24.855080 
3830.000000	24.866610 
3829.000000	24.863697 
3828.000000	24.854187 
3827.000000	24.847252 
3826.000000	24.838165 
3825.000000	24.807432 
3824.000000	24.744451 
3823.000000	24.666736 
3822.000000	24.603883 
3821.000000	24.572937 
3820.000000	24.555285 
3819.000000	24.524604 
3818.000000	24.508545 
3817.000000	24.551692 
3816.000000	24.649781 
3815.000000	24.747182 
3814.000000	24.793728 
3813.000000	24.800701 
3812.000000	24.803279 
3811.000000	24.797224 
3810.000000	24.760305 
3809.000000	24.703111 
3808.000000	24.665878 
3807.000000	24.664056 
3806.000000	24.653527 
3805.000000	24.584466 
3804.000000	24.478171 
3803.000000	24.404579 
3802.000000	24.402943 
3801.000000	24.449043 
3800.000000	24.480373 
3799.000000	24.482271 
3798.000000	24.508317 
3797.000000	24.587138 
3796.000000	24.682294 
3795.000000	24.739249 
3794.000000	24.746006 
3793.000000	24.734597 
3792.000000	24.730778 
3791.000000	24.728539 
3790.000000	24.715328 
3789.000000	24.697832 
3788.000000	24.696669 
3787.000000	24.726141 
3786.000000	24.783069 
3785.000000	24.845136 
3784.000000	24.876556 
3783.000000	24.849572 
3782.000000	24.771039 
3781.000000	24.684737 
3780.000000	24.638834 
3779.000000	24.648316 
3778.000000	24.682568 
3777.000000	24.700463 
3776.000000	24.690016 
3775.000000	24.663403 
3774.000000	24.630415 
3773.000000	24.596316 
3772.000000	24.575074 
3771.000000	24.582624 
3770.000000	24.607982 
3769.000000	24.609961 
3768.000000	24.561884 
3767.000000	24.491094 
3766.000000	24.452526 
3765.000000	24.469951 
3764.000000	24.514853 
3763.000000	24.543505 
3762.000000	24.542343 
3761.000000	24.524494 
3760.000000	24.500321 
3759.000000	24.474135 
3758.000000	24.447711 
3757.000000	24.413921 
3756.000000	24.357031 
3755.000000	24.274175 
3754.000000	24.185154 
3753.000000	24.108251 
3752.000000	24.039880 
3751.000000	23.973535 
3750.000000	23.926239 
3749.000000	23.913130 
3748.000000	23.920859 
3747.000000	23.942533 
3746.000000	23.998660 
3745.000000	24.098792 
3744.000000	24.204881 
3743.000000	24.244453 
3742.000000	24.212941 
3741.000000	24.196091 
3740.000000	24.229044 
3739.000000	24.258946 
3738.000000	24.236455 
3737.000000	24.177514 
3736.000000	24.131833 
3735.000000	24.114296 
3734.000000	24.107947 
3733.000000	24.118774 
3732.000000	24.171890 
3731.000000	24.254888 
3730.000000	24.321157 
3729.000000	24.344136 
3728.000000	24.336353 
3727.000000	24.323749 
3726.000000	24.320568 
3725.000000	24.325237 
3724.000000	24.335280 
3723.000000	24.352069 
3722.000000	24.372611 
3721.000000	24.390146 
3720.000000	24.396146 
3719.000000	24.381643 
3718.000000	24.341509 
3717.000000	24.281406 
3716.000000	24.217025 
3715.000000	24.167282 
3714.000000	24.137874 
3713.000000	24.108664 
3712.000000	24.053646 
3711.000000	23.980473 
3710.000000	23.928490 
3709.000000	23.926102 
3708.000000	23.969332 
3707.000000	24.035494 
3706.000000	24.100082 
3705.000000	24.146487 
3704.000000	24.170978 
3703.000000	24.179199 
3702.000000	24.178229 
3701.000000	24.166119 
3700.000000	24.131190 
3699.000000	24.071725 
3698.000000	24.011051 
3697.000000	23.977692 
3696.000000	23.975777 
3695.000000	23.984289 
3694.000000	23.981888 
3693.000000	23.960341 
3692.000000	23.919196 
3691.000000	23.867693 
3690.000000	23.825232 
3689.000000	23.802632 
3688.000000	23.781778 
3687.000000	23.739960 
3686.000000	23.694214 
3685.000000	23.690189 
3684.000000	23.743346 
3683.000000	23.814505 
3682.000000	23.848553 
3681.000000	23.825948 
3680.000000	23.768360 
3679.000000	23.697217 
3678.000000	23.618680 
3677.000000	23.541571 
3676.000000	23.482679 
3675.000000	23.441158 
3674.000000	23.387128 
3673.000000	23.324522 
3672.000000	23.311856 
3671.000000	23.374533 
3670.000000	23.464322 
3669.000000	23.509399 
3668.000000	23.486384 
3667.000000	23.439085 
3666.000000	23.414105 
3665.000000	23.417167 
3664.000000	23.435484 
3663.000000	23.466301 
3662.000000	23.513612 
3661.000000	23.565833 
3660.000000	23.591847 
3659.000000	23.565651 
3658.000000	23.493709 
3657.000000	23.408347 
3656.000000	23.332913 
3655.000000	23.253597 
3654.000000	23.150195 
3653.000000	23.038659 
3652.000000	22.951211 
3651.000000	22.895754 
3650.000000	22.856427 
3649.000000	22.823841 
3648.000000	22.807034 
3647.000000	22.811331 
3646.000000	22.823271 
3645.000000	22.829015 
3644.000000	22.829581 
3643.000000	22.834060 
3642.000000	22.842805 
3641.000000	22.844389 
3640.000000	22.828217 
3639.000000	22.795210 
3638.000000	22.752266 
3637.000000	22.702418 
3636.000000	22.648650 
3635.000000	22.596299 
3634.000000	22.543014 
3633.000000	22.473291 
3632.000000	22.377240 
3631.000000	22.267975 
3630.000000	22.170392 
3629.000000	22.103483 
3628.000000	22.064929 
3627.000000	22.035369 
3626.000000	22.019020 
3625.000000	22.031877 
3624.000000	22.056668 
3623.000000	22.055587 
3622.000000	22.008697 
3621.000000	21.929248 
3620.000000	21.850246 
3619.000000	21.798688 
3618.000000	21.773910 
3617.000000	21.751633 
3616.000000	21.715470 
3615.000000	21.669671 
3614.000000	21.625740 
3613.000000	21.586807 
3612.000000	21.546187 
3611.000000	21.499597 
3610.000000	21.452482 
3609.000000	21.412142 
3608.000000	21.378405 
3607.000000	21.344561 
3606.000000	21.303232 
3605.000000	21.251265 
3604.000000	21.191481 
3603.000000	21.133308 
3602.000000	21.091710 
3601.000000	21.076001 
3600.000000	21.080642 
3599.000000	21.092694 
3598.000000	21.106620 
3597.000000	21.116847 
3596.000000	21.105487 
3595.000000	21.051093 
3594.000000	20.952372 
3593.000000	20.832651 
3592.000000	20.721243 
3591.000000	20.634730 
3590.000000	20.576759 
3589.000000	20.547514 
3588.000000	20.543429 
3587.000000	20.546072 
3586.000000	20.523023 
3585.000000	20.458632 
3584.000000	20.373497 
3583.000000	20.303479 
3582.000000	20.272735 
3581.000000	20.283078 
3580.000000	20.319244 
3579.000000	20.361520 
3578.000000	20.395908 
3577.000000	20.411318 
3576.000000	20.394087 
3575.000000	20.335411 
3574.000000	20.243919 
3573.000000	20.144600 
3572.000000	20.059611 
3571.000000	19.993480 
3570.000000	19.937925 
3569.000000	19.889119 
3568.000000	19.854191 
3567.000000	19.840639 
3566.000000	19.843267 
3565.000000	19.851022 
3564.000000	19.862514 
3563.000000	19.880537 
3562.000000	19.897890 
3561.000000	19.901261 
3560.000000	19.885195 
3559.000000	19.855983 
3558.000000	19.821943 
3557.000000	19.786087 
3556.000000	19.748168 
3555.000000	19.709974 
3554.000000	19.673967 
3553.000000	19.637537 
3552.000000	19.592657 
3551.000000	19.535793 
3550.000000	19.478014 
3549.000000	19.442226 
3548.000000	19.447815 
3547.000000	19.494664 
3546.000000	19.557792 
3545.000000	19.599246 
3544.000000	19.594689 
3543.000000	19.553166 
3542.000000	19.509509 
3541.000000	19.495948 
3540.000000	19.518233 
3539.000000	19.555728 
3538.000000	19.581848 
3537.000000	19.584141 
3536.000000	19.568393 
3535.000000	19.546727 
3534.000000	19.525367 
3533.000000	19.503902 
3532.000000	19.483551 
3531.000000	19.471122 
3530.000000	19.473024 
3529.000000	19.485600 
3528.000000	19.496205 
3527.000000	19.496791 
3526.000000	19.493332 
3525.000000	19.497310 
3524.000000	19.510111 
3523.000000	19.521875 
3522.000000	19.525833 
3521.000000	19.526300 
3520.000000	19.529631 
3519.000000	19.533468 
3518.000000	19.529714 
3517.000000	19.515427 
3516.000000	19.496887 
3515.000000	19.482857 
3514.000000	19.479226 
3513.000000	19.491075 
3512.000000	19.524455 
3511.000000	19.578569 
3510.000000	19.635931 
3509.000000	19.667655 
3508.000000	19.655179 
3507.000000	19.606553 
3506.000000	19.549950 
3505.000000	19.512670 
3504.000000	19.507248 
3503.000000	19.531941 
3502.000000	19.577054 
3501.000000	19.628726 
3500.000000	19.672120 
3499.000000	19.697181 
3498.000000	19.703216 
3497.000000	19.696474 
3496.000000	19.683447 
3495.000000	19.668605 
3494.000000	19.657463 
3493.000000	19.656030 
3492.000000	19.664152 
3491.000000	19.672277 
3490.000000	19.668657 
3489.000000	19.650515 
3488.000000	19.626706 
3487.000000	19.608840 
3486.000000	19.601489 
3485.000000	19.601658 
3484.000000	19.606766 
3483.000000	19.621864 
3482.000000	19.656872 
3481.000000	19.712312 
3480.000000	19.768248 
3479.000000	19.793584 
3478.000000	19.770322 
3477.000000	19.709741 
3476.000000	19.644875 
3475.000000	19.607653 
3474.000000	19.609710 
3473.000000	19.638666 
3472.000000	19.669984 
3471.000000	19.685545 
3470.000000	19.685892 
3469.000000	19.686548 
3468.000000	19.702210 
3467.000000	19.735998 
3466.000000	19.783080 
3465.000000	19.836830 
3464.000000	19.884852 
3463.000000	19.905694 
3462.000000	19.883932 
3461.000000	19.833449 
3460.000000	19.794555 
3459.000000	19.800378 
3458.000000	19.850205 
3457.000000	19.916805 
3456.000000	19.972855 
3455.000000	20.005516 
3454.000000	20.013837 
3453.000000	20.001429 
3452.000000	19.971829 
3451.000000	19.927626 
3450.000000	19.876889 
3449.000000	19.841389 
3448.000000	19.848960 
3447.000000	19.907553 
3446.000000	19.992199 
3445.000000	20.068679 
3444.000000	20.124396 
3443.000000	20.163831 
3442.000000	20.182899 
3441.000000	20.168318 
3440.000000	20.124086 
3439.000000	20.079964 
3438.000000	20.063511 
3437.000000	20.074402 
3436.000000	20.094393 
3435.000000	20.112934 
3434.000000	20.131520 
3433.000000	20.150462 
3432.000000	20.166738 
3431.000000	20.183350 
3430.000000	20.207430 
3429.000000	20.236704 
3428.000000	20.259515 
3427.000000	20.273311 
3426.000000	20.292691 
3425.000000	20.329731 
3424.000000	20.373070 
3423.000000	20.397793 
3422.000000	20.395395 
3421.000000	20.385361 
3420.000000	20.394038 
3419.000000	20.428860 
3418.000000	20.477808 
3417.000000	20.527745 
3416.000000	20.574533 
3415.000000	20.615838 
3414.000000	20.643002 
3413.000000	20.647145 
3412.000000	20.631699 
3411.000000	20.612660 
3410.000000	20.602428 
3409.000000	20.596120 
3408.000000	20.578920 
3407.000000	20.548174 
3406.000000	20.524249 
3405.000000	20.534954 
3404.000000	20.588042 
3403.000000	20.660007 
3402.000000	20.711949 
3401.000000	20.717968 
3400.000000	20.682643 
3399.000000	20.636456 
3398.000000	20.616223 
3397.000000	20.643174 
3396.000000	20.709123 
3395.000000	20.778952 
3394.000000	20.812642 
3393.000000	20.795859 
3392.000000	20.754464 
3391.000000	20.733622 
3390.000000	20.756423 
3389.000000	20.804051 
3388.000000	20.838560 
3387.000000	20.841116 
3386.000000	20.823889 
3385.000000	20.809302 
3384.000000	20.805818 
3383.000000	20.806314 
3382.000000	20.804684 
3381.000000	20.807524 
3380.000000	20.828538 
3379.000000	20.872088 
3378.000000	20.922111 
3377.000000	20.951998 
3376.000000	20.952047 
3375.000000	20.946149 
3374.000000	20.972683 
3373.000000	21.046006 
3372.000000	21.141186 
3371.000000	21.218827 
3370.000000	21.259118 
3369.000000	21.268413 
3368.000000	21.259448 
3367.000000	21.235952 
3366.000000	21.199299 
3365.000000	21.163612 
3364.000000	21.155611 
3363.000000	21.193134 
3362.000000	21.261837 
3361.000000	21.318551 
3360.000000	21.327118 
3359.000000	21.293557 
3358.000000	21.260105 
3357.000000	21.261388 
3356.000000	21.293089 
3355.000000	21.327433 
3354.000000	21.350918 
3353.000000	21.376227 
3352.000000	21.419938 
3351.000000	21.479557 
3350.000000	21.534691 
3349.000000	21.564373 
3348.000000	21.562963 
3347.000000	21.546266 
3346.000000	21.542746 
3345.000000	21.570896 
3344.000000	21.621363 
3343.000000	21.665988 
3342.000000	21.686202 
3341.000000	21.686557 
3340.000000	21.680122 
3339.000000	21.671108 
3338.000000	21.659606 
3337.000000	21.655704 
3336.000000	21.675825 
3335.000000	21.723858 
3334.000000	21.784705 
3333.000000	21.838793 
3332.000000	21.878356 
3331.000000	21.909445 
3330.000000	21.942730 
3329.000000	21.983902 
3328.000000	22.028899 
3327.000000	22.066833 
3326.000000	22.091146 
3325.000000	22.108699 
3324.000000	22.133308 
3323.000000	22.167729 
3322.000000	22.196827 
3321.000000	22.203059 
3320.000000	22.186454 
3319.000000	22.165351 
3318.000000	22.158328 
3317.000000	22.169273 
3316.000000	22.189582 
3315.000000	22.209826 
3314.000000	22.226738 
3313.000000	22.242215 
3312.000000	22.259806 
3311.000000	22.281799 
3310.000000	22.306699 
3309.000000	22.328629 
3308.000000	22.340995 
3307.000000	22.342308 
3306.000000	22.338097 
3305.000000	22.336597 
3304.000000	22.342882 
3303.000000	22.356409 
3302.000000	22.371286 
3301.000000	22.377866 
3300.000000	22.369150 
3299.000000	22.352446 
3298.000000	22.354217 
3297.000000	22.403761 
3296.000000	22.503122 
3295.000000	22.614928 
3294.000000	22.688603 
3293.000000	22.702061 
3292.000000	22.675038 
3291.000000	22.641890 
3290.000000	22.619231 
3289.000000	22.604525 
3288.000000	22.595871 
3287.000000	22.598925 
3286.000000	22.614500 
3285.000000	22.632721 
3284.000000	22.647512 
3283.000000	22.669870 
3282.000000	22.716713 
3281.000000	22.787175 
3280.000000	22.857306 
3279.000000	22.899640 
3278.000000	22.903783 
3277.000000	22.879244 
3276.000000	22.845840 
3275.000000	22.824624 
3274.000000	22.831582 
3273.000000	22.871630 
3272.000000	22.936759 
3271.000000	23.011441 
3270.000000	23.079187 
3269.000000	23.124215 
3268.000000	23.132977 
3267.000000	23.102283 
3266.000000	23.048236 
3265.000000	23.002367 
3264.000000	22.992643 
3263.000000	23.024275 
3262.000000	23.077415 
3261.000000	23.124958 
3260.000000	23.156109 
3259.000000	23.183472 
3258.000000	23.224290 
3257.000000	23.274366 
3256.000000	23.305456 
3255.000000	23.293406 
3254.000000	23.247427 
3253.000000	23.206114 
3252.000000	23.203331 
3251.000000	23.240767 
3250.000000	23.292362 
3249.000000	23.329614 
3248.000000	23.341512 
3247.000000	23.336324 
3246.000000	23.330518 
3245.000000	23.335400 
3244.000000	23.349358 
3243.000000	23.360573 
3242.000000	23.358661 
3241.000000	23.345254 
3240.000000	23.333044 
3239.000000	23.333502 
3238.000000	23.346134 
3237.000000	23.362230 
3236.000000	23.379567 
3235.000000	23.408798 
3234.000000	23.459412 
3233.000000	23.520274 
3232.000000	23.562219 
3231.000000	23.565663 
3230.000000	23.542699 
3229.000000	23.526567 
3228.000000	23.540688 
3227.000000	23.582385 
3226.000000	23.633816 
3225.000000	23.679895 
3224.000000	23.713750 
3223.000000	23.733568 
3222.000000	23.741826 
3221.000000	23.745708 
3220.000000	23.752676 
3219.000000	23.764500 
3218.000000	23.777624 
3217.000000	23.789089 
3216.000000	23.800606 
3215.000000	23.818183 
3214.000000	23.850161 
3213.000000	23.904168 
3212.000000	23.980720 
3211.000000	24.066076 
3210.000000	24.132565 
3209.000000	24.151559 
3208.000000	24.113825 
3207.000000	24.041974 
3206.000000	23.980921 
3205.000000	23.969608 
3204.000000	24.015999 
3203.000000	24.095995 
3202.000000	24.173784 
3201.000000	24.222275 
3200.000000	24.230628 
3199.000000	24.204562 
3198.000000	24.165171 
3197.000000	24.141033 
3196.000000	24.151695 
3195.000000	24.195767 
3194.000000	24.255138 
3193.000000	24.308599 
3192.000000	24.342426 
3191.000000	24.355479 
3190.000000	24.360120 
3189.000000	24.374548 
3188.000000	24.407352 
3187.000000	24.449428 
3186.000000	24.484095 
3185.000000	24.503365 
3184.000000	24.511198 
3183.000000	24.514699 
3182.000000	24.518992 
3181.000000	24.529716 
3180.000000	24.553336 
3179.000000	24.592610 
3178.000000	24.644195 
3177.000000	24.699814 
3176.000000	24.747503 
3175.000000	24.776616 
3174.000000	24.788951 
3173.000000	24.801857 
3172.000000	24.830034 
3171.000000	24.863976 
3170.000000	24.878109 
3169.000000	24.864876 
3168.000000	24.849520 
3167.000000	24.861531 
3166.000000	24.898606 
3165.000000	24.930141 
3164.000000	24.933915 
3163.000000	24.918538 
3162.000000	24.908302 
3161.000000	24.915964 
3160.000000	24.936511 
3159.000000	24.961770 
3158.000000	24.992172 
3157.000000	25.032253 
3156.000000	25.079523 
3155.000000	25.123136 
3154.000000	25.154374 
3153.000000	25.174941 
3152.000000	25.192897 
3151.000000	25.213650 
3150.000000	25.238178 
3149.000000	25.266996 
3148.000000	25.299481 
3147.000000	25.328802 
3146.000000	25.343959 
3145.000000	25.339999 
3144.000000	25.323138 
3143.000000	25.305291 
3142.000000	25.297828 
3141.000000	25.310432 
3140.000000	25.347634 
3139.000000	25.400344 
3138.000000	25.445540 
3137.000000	25.462434 
3136.000000	25.450200 
3135.000000	25.427477 
3134.000000	25.415764 
3133.000000	25.424990 
3132.000000	25.450893 
3131.000000	25.480736 
3130.000000	25.503056 
3129.000000	25.516715 
3128.000000	25.530171 
3127.000000	25.548979 
3126.000000	25.566657 
3125.000000	25.573914 
3124.000000	25.576285 
3123.000000	25.595408 
3122.000000	25.649163 
3121.000000	25.732642 
3120.000000	25.819538 
3119.000000	25.879683 
3118.000000	25.895570 
3117.000000	25.869443 
3116.000000	25.822294 
3115.000000	25.784917 
3114.000000	25.781168 
3113.000000	25.812237 
3112.000000	25.856364 
3111.000000	25.888190 
3110.000000	25.901604 
3109.000000	25.912490 
3108.000000	25.937262 
3107.000000	25.971384 
3106.000000	25.993898 
3105.000000	25.991989 
3104.000000	25.974751 
3103.000000	25.961743 
3102.000000	25.963968 
3101.000000	25.979178 
3100.000000	26.001292 
3099.000000	26.028437 
3098.000000	26.061015 
3097.000000	26.095583 
3096.000000	26.123881 
3095.000000	26.140024 
3094.000000	26.147943 
3093.000000	26.156865 
3092.000000	26.166549 
3091.000000	26.162626 
3090.000000	26.135191 
3089.000000	26.099682 
3088.000000	26.087594 
3087.000000	26.113189 
3086.000000	26.159883 
3085.000000	26.204255 
3084.000000	26.241364 
3083.000000	26.276675 
3082.000000	26.304353 
3081.000000	26.312088 
3080.000000	26.306438 
3079.000000	26.316052 
3078.000000	26.361936 
3077.000000	26.433205 
3076.000000	26.498325 
3075.000000	26.534320 
3074.000000	26.541477 
3073.000000	26.536123 
3072.000000	26.534676 
3071.000000	26.540826 
3070.000000	26.542899 
3069.000000	26.525711 
3068.000000	26.489486 
3067.000000	26.456131 
3066.000000	26.452525 
3065.000000	26.485627 
3064.000000	26.534796 
3063.000000	26.568939 
3062.000000	26.572287 
3061.000000	26.556805 
3060.000000	26.551396 
3059.000000	26.577399 
3058.000000	26.631416 
3057.000000	26.689731 
3056.000000	26.728569 
3055.000000	26.740158 
3054.000000	26.732884 
3053.000000	26.721458 
3052.000000	26.718253 
3051.000000	26.729786 
3050.000000	26.756205 
3049.000000	26.792197 
3048.000000	26.829397 
3047.000000	26.859713 
3046.000000	26.878601 
3045.000000	26.886885 
3044.000000	26.888867 
3043.000000	26.887763 
3042.000000	26.883884 
3041.000000	26.877937 
3040.000000	26.873670 
3039.000000	26.874782 
3038.000000	26.881571 
3037.000000	26.894401 
3036.000000	26.918541 
3035.000000	26.959998 
3034.000000	27.015241 
3033.000000	27.068810 
3032.000000	27.103607 
3031.000000	27.113421 
3030.000000	27.106592 
3029.000000	27.099807 
3028.000000	27.106409 
3027.000000	27.126097 
3026.000000	27.145778 
3025.000000	27.153805 
3024.000000	27.152966 
3023.000000	27.155030 
3022.000000	27.163511 
3021.000000	27.169062 
3020.000000	27.164374 
3019.000000	27.157549 
3018.000000	27.165850 
3017.000000	27.198504 
3016.000000	27.248578 
3015.000000	27.298766 
3014.000000	27.332187 
3013.000000	27.341075 
3012.000000	27.330837 
3011.000000	27.316485 
3010.000000	27.312116 
3009.000000	27.322810 
3008.000000	27.345612 
3007.000000	27.374525 
3006.000000	27.402203 
3005.000000	27.420357 
3004.000000	27.423931 
3003.000000	27.415608 
3002.000000	27.404250 
3001.000000	27.399153 
3000.000000	27.406613 
2999.000000	27.429340 
2998.000000	27.464986 
2997.000000	27.505008 
2996.000000	27.537805 
2995.000000	27.554392 
2994.000000	27.551743 
2993.000000	27.533660 
2992.000000	27.510772 
2991.000000	27.497663 
2990.000000	27.505211 
2989.000000	27.533547 
2988.000000	27.572569 
2987.000000	27.608388 
2986.000000	27.629439 
2985.000000	27.630653 
2984.000000	27.616906 
2983.000000	27.601811 
2982.000000	27.598306 
2981.000000	27.608163 
2980.000000	27.622357 
2979.000000	27.631686 
2978.000000	27.634079 
2977.000000	27.631016 
2976.000000	27.620863 
2975.000000	27.598946 
2974.000000	27.563420 
2973.000000	27.519705 
2972.000000	27.479784 
2971.000000	27.456614 
2970.000000	27.455387 
2969.000000	27.468485 
2968.000000	27.482337 
2967.000000	27.492525 
2966.000000	27.509319 
2965.000000	27.543413 
2964.000000	27.587672 
2963.000000	27.618901 
2962.000000	27.619751 
2961.000000	27.594887 
2960.000000	27.563894 
2959.000000	27.542736 
2958.000000	27.535327 
2957.000000	27.538609 
2956.000000	27.548775 
2955.000000	27.562475 
2954.000000	27.576689 
2953.000000	27.588195 
2952.000000	27.590678 
2951.000000	27.574662 
2950.000000	27.537668 
2949.000000	27.495790 
2948.000000	27.476819 
2947.000000	27.495010 
2946.000000	27.535254 
2945.000000	27.567761 
2944.000000	27.576929 
2943.000000	27.570892 
2942.000000	27.564570 
2941.000000	27.561309 
2940.000000	27.554267 
2939.000000	27.539598 
2938.000000	27.521074 
2937.000000	27.502498 
2936.000000	27.482129 
2935.000000	27.458987 
2934.000000	27.442535 
2933.000000	27.448854 
2932.000000	27.481367 
2931.000000	27.517414 
2930.000000	27.522898 
2929.000000	27.486068 
2928.000000	27.434298 
2927.000000	27.411506 
2926.000000	27.439418 
2925.000000	27.502808 
2924.000000	27.568153 
2923.000000	27.610025 
2922.000000	27.622028 
2921.000000	27.614066 
2920.000000	27.605632 
2919.000000	27.616540 
2918.000000	27.655004 
2917.000000	27.711163 
2916.000000	27.763991 
2915.000000	27.796951 
2914.000000	27.809975 
2913.000000	27.819434 
2912.000000	27.845479 
2911.000000	27.893844 
2910.000000	27.947128 
2909.000000	27.977280 
2908.000000	27.971456 
2907.000000	27.945008 
2906.000000	27.927158 
2905.000000	27.935357 
2904.000000	27.965282 
2903.000000	28.002587 
2902.000000	28.038909 
2901.000000	28.075963 
2900.000000	28.117769 
2899.000000	28.161375 
2898.000000	28.196301 
2897.000000	28.213272 
2896.000000	28.214950 
2895.000000	28.215685 
2894.000000	28.227626 
2893.000000	28.247207 
2892.000000	28.258565 
2891.000000	28.251523 
2890.000000	28.234299 
2889.000000	28.226767 
2888.000000	28.241610 
2887.000000	28.271877 
2886.000000	28.296553 
2885.000000	28.299379 
2884.000000	28.284225 
2883.000000	28.272222 
2882.000000	28.282664 
2881.000000	28.316397 
2880.000000	28.357313 
2879.000000	28.386576 
2878.000000	28.393214 
2877.000000	28.376502 
2876.000000	28.347293 
2875.000000	28.326966 
2874.000000	28.334177 
2873.000000	28.365501 
2872.000000	28.394432 
2871.000000	28.397110 
2870.000000	28.376951 
2869.000000	28.357912 
2868.000000	28.356983 
2867.000000	28.371925 
2866.000000	28.393560 
2865.000000	28.418370 
2864.000000	28.444528 
2863.000000	28.464572 
2862.000000	28.470276 
2861.000000	28.461703 
2860.000000	28.445552 
2859.000000	28.426127 
2858.000000	28.402481 
2857.000000	28.373291 
2856.000000	28.340638 
2855.000000	28.309695 
2854.000000	28.287599 
2853.000000	28.281316 
2852.000000	28.292830 
2851.000000	28.315895 
2850.000000	28.340160 
2849.000000	28.359921 
2848.000000	28.379517 
2847.000000	28.410858 
2846.000000	28.464143 
2845.000000	28.537104 
2844.000000	28.612414 
2843.000000	28.670356 
2842.000000	28.706879 
2841.000000	28.736662 
2840.000000	28.776353 
2839.000000	28.828306 
2838.000000	28.882100 
2837.000000	28.924879 
2836.000000	28.945233 
2835.000000	28.935025 
2834.000000	28.900098 
2833.000000	28.867321 
2832.000000	28.867735 
2831.000000	28.906839 
2830.000000	28.957879 
2829.000000	28.989519 
2828.000000	28.995161 
2827.000000	28.992118 
2826.000000	28.998328 
2825.000000	29.016718 
2824.000000	29.039174 
2823.000000	29.057516 
2822.000000	29.068055 
2821.000000	29.069331 
2820.000000	29.060051 
2819.000000	29.040822 
2818.000000	29.016926 
2817.000000	28.996981 
2816.000000	28.987061 
2815.000000	28.987308 
2814.000000	28.995616 
2813.000000	29.012261 
2812.000000	29.037302 
2811.000000	29.064809 
2810.000000	29.085185 
2809.000000	29.095391 
2808.000000	29.103730 
2807.000000	29.121212 
2806.000000	29.147716 
2805.000000	29.167933 
2804.000000	29.163416 
2803.000000	29.132280 
2802.000000	29.097047 
2801.000000	29.087330 
2800.000000	29.110652 
2799.000000	29.144989 
2798.000000	29.165278 
2797.000000	29.172392 
2796.000000	29.187486 
2795.000000	29.220575 
2794.000000	29.256163 
2793.000000	29.271971 
2792.000000	29.262747 
2791.000000	29.241562 
2790.000000	29.225129 
2789.000000	29.222264 
2788.000000	29.230691 
2787.000000	29.240098 
2786.000000	29.241994 
2785.000000	29.240071 
2784.000000	29.247611 
2783.000000	29.272408 
2782.000000	29.308135 
2781.000000	29.341377 
2780.000000	29.361227 
2779.000000	29.360753 
2778.000000	29.338739 
2777.000000	29.306392 
2776.000000	29.285371 
2775.000000	29.290462 
2774.000000	29.316047 
2773.000000	29.344205 
2772.000000	29.361806 
2771.000000	29.365080 
2770.000000	29.353940 
2769.000000	29.332270 
2768.000000	29.312531 
2767.000000	29.310167 
2766.000000	29.330076 
2765.000000	29.362334 
2764.000000	29.392049 
2763.000000	29.409535 
2762.000000	29.411766 
2761.000000	29.400186 
2760.000000	29.379932 
2759.000000	29.358323 
2758.000000	29.341755 
2757.000000	29.334340 
2756.000000	29.338036 
2755.000000	29.350846 
2754.000000	29.364913 
2753.000000	29.370133 
2752.000000	29.361990 
2751.000000	29.345649 
2750.000000	29.331904 
2749.000000	29.329284 
2748.000000	29.339106 
2747.000000	29.356545 
2746.000000	29.375583 
2745.000000	29.392453 
2744.000000	29.404975 
2743.000000	29.411304 
2742.000000	29.411788 
2741.000000	29.410219 
2740.000000	29.409644 
2739.000000	29.407664 
2738.000000	29.399735 
2737.000000	29.386486 
2736.000000	29.373357 
2735.000000	29.363503 
2734.000000	29.356594 
2733.000000	29.354659 
2732.000000	29.362136 
2731.000000	29.378060 
2730.000000	29.394878 
2729.000000	29.408024 
2728.000000	29.420079 
2727.000000	29.431457 
2726.000000	29.433883 
2725.000000	29.419679 
2724.000000	29.393300 
2723.000000	29.367304 
2722.000000	29.349710 
2721.000000	29.340911 
2720.000000	29.340186 
2719.000000	29.348307 
2718.000000	29.363049 
2717.000000	29.376105 
2716.000000	29.376482 
2715.000000	29.358506 
2714.000000	29.330479 
2713.000000	29.315340 
2712.000000	29.334637 
2711.000000	29.385949 
2710.000000	29.440335 
2709.000000	29.468373 
2708.000000	29.466599 
2707.000000	29.454467 
2706.000000	29.449946 
2705.000000	29.454676 
2704.000000	29.459750 
2703.000000	29.458136 
2702.000000	29.451303 
2701.000000	29.449050 
2700.000000	29.462319 
2699.000000	29.491200 
2698.000000	29.520879 
2697.000000	29.534444 
2696.000000	29.529492 
2695.000000	29.518346 
2694.000000	29.513223 
2693.000000	29.515705 
2692.000000	29.519187 
2691.000000	29.515437 
2690.000000	29.498039 
2689.000000	29.465849 
2688.000000	29.427266 
2687.000000	29.398431 
2686.000000	29.392433 
2685.000000	29.408183 
2684.000000	29.430220 
2683.000000	29.440921 
2682.000000	29.434806 
2681.000000	29.421438 
2680.000000	29.413997 
2679.000000	29.416268 
2678.000000	29.422496 
2677.000000	29.427148 
2676.000000	29.429913 
2675.000000	29.432229 
2674.000000	29.435011 
2673.000000	29.440406 
2672.000000	29.449833 
2671.000000	29.459459 
2670.000000	29.463970 
2669.000000	29.465476 
2668.000000	29.470564 
2667.000000	29.476760 
2666.000000	29.472289 
2665.000000	29.454673 
2664.000000	29.439703 
2663.000000	29.443914 
2662.000000	29.465252 
2661.000000	29.489177 
2660.000000	29.507252 
2659.000000	29.519880 
2658.000000	29.525402 
2657.000000	29.518004 
2656.000000	29.497016 
2655.000000	29.471665 
2654.000000	29.456791 
2653.000000	29.466221 
2652.000000	29.504172 
2651.000000	29.556231 
2650.000000	29.594033 
2649.000000	29.598111 
2648.000000	29.574534 
2647.000000	29.543810 
2646.000000	29.518762 
2645.000000	29.500639 
2644.000000	29.489508 
2643.000000	29.485265 
2642.000000	29.480834 
2641.000000	29.467395 
2640.000000	29.448046 
2639.000000	29.436769 
2638.000000	29.442326 
2637.000000	29.460557 
2636.000000	29.482338 
2635.000000	29.500566 
2634.000000	29.509150 
2633.000000	29.504597 
2632.000000	29.491166 
2631.000000	29.477855 
2630.000000	29.469062 
2629.000000	29.463769 
2628.000000	29.462786 
2627.000000	29.469061 
2626.000000	29.480889 
2625.000000	29.492436 
2624.000000	29.500897 
2623.000000	29.505508 
2622.000000	29.500758 
2621.000000	29.481291 
2620.000000	29.454810 
2619.000000	29.439140 
2618.000000	29.442686 
2617.000000	29.456700 
2616.000000	29.469795 
2615.000000	29.479727 
2614.000000	29.485922 
2613.000000	29.481423 
2612.000000	29.461985 
2611.000000	29.437103 
2610.000000	29.422683 
2609.000000	29.425742 
2608.000000	29.442711 
2607.000000	29.468382 
2606.000000	29.497941 
2605.000000	29.522142 
2604.000000	29.530233 
2603.000000	29.520860 
2602.000000	29.505138 
2601.000000	29.496005 
2600.000000	29.496774 
2599.000000	29.501638 
2598.000000	29.504546 
2597.000000	29.503819 
2596.000000	29.498186 
2595.000000	29.482983 
2594.000000	29.455505 
2593.000000	29.424040 
2592.000000	29.405528 
2591.000000	29.409754 
2590.000000	29.428811 
2589.000000	29.446880 
2588.000000	29.458037 
2587.000000	29.468342 
2586.000000	29.481404 
2585.000000	29.490202 
2584.000000	29.487049 
2583.000000	29.475983 
2582.000000	29.468870 
2581.000000	29.470045 
2580.000000	29.470082 
2579.000000	29.457565 
2578.000000	29.435166 
2577.000000	29.420359 
2576.000000	29.428683 
2575.000000	29.458182 
2574.000000	29.491876 
2573.000000	29.512410 
2572.000000	29.510894 
2571.000000	29.486240 
2570.000000	29.445745 
2569.000000	29.407091 
2568.000000	29.388674 
2567.000000	29.391317 
2566.000000	29.396569 
2565.000000	29.390231 
2564.000000	29.382010 
2563.000000	29.393490 
2562.000000	29.429526 
2561.000000	29.469133 
2560.000000	29.483852 
2559.000000	29.460889 
2558.000000	29.412235 
2557.000000	29.367547 
2556.000000	29.354131 
2555.000000	29.375219 
2554.000000	29.408226 
2553.000000	29.429063 
2552.000000	29.434387 
2551.000000	29.434126 
2550.000000	29.429704 
2549.000000	29.413649 
2548.000000	29.389382 
2547.000000	29.375452 
2546.000000	29.383137 
2545.000000	29.399608 
2544.000000	29.402368 
2543.000000	29.386552 
2542.000000	29.370576 
2541.000000	29.374592 
2540.000000	29.397139 
2539.000000	29.415045 
2538.000000	29.407080 
2537.000000	29.377099 
2536.000000	29.350500 
2535.000000	29.346133 
2534.000000	29.356114 
2533.000000	29.357437 
2532.000000	29.339012 
2531.000000	29.310291 
2530.000000	29.286455 
2529.000000	29.274385 
2528.000000	29.273936 
2527.000000	29.284885 
2526.000000	29.307667 
2525.000000	29.338843 
2524.000000	29.367873 
2523.000000	29.380344 
2522.000000	29.368570 
2521.000000	29.340298 
2520.000000	29.312028 
2519.000000	29.291507 
2518.000000	29.273000 
2517.000000	29.252467 
2516.000000	29.237402 
2515.000000	29.233894 
2514.000000	29.232988 
2513.000000	29.221280 
2512.000000	29.199856 
2511.000000	29.182072 
2510.000000	29.177679 
2509.000000	29.190365 
2508.000000	29.224400 
2507.000000	29.277329 
2506.000000	29.327738 
2505.000000	29.347686 
2504.000000	29.331767 
2503.000000	29.301943 
2502.000000	29.281206 
2501.000000	29.274225 
2500.000000	29.275825 
2499.000000	29.284322 
2498.000000	29.299287 
2497.000000	29.315353 
2496.000000	29.324703 
2495.000000	29.320515 
2494.000000	29.297383 
2493.000000	29.257664 
2492.000000	29.218465 
2491.000000	29.200337 
2490.000000	29.204965 
2489.000000	29.214879 
2488.000000	29.218812 
2487.000000	29.224498 
2486.000000	29.239711 
2485.000000	29.253876 
2484.000000	29.250778 
2483.000000	29.231993 
2482.000000	29.215883 
2481.000000	29.216493 
2480.000000	29.231827 
2479.000000	29.249693 
2478.000000	29.257739 
2477.000000	29.251077 
2476.000000	29.237549 
2475.000000	29.233151 
2474.000000	29.244596 
2473.000000	29.256898 
2472.000000	29.244963 
2471.000000	29.199721 
2470.000000	29.140136 
2469.000000	29.097989 
2468.000000	29.091256 
2467.000000	29.111793 
2466.000000	29.137750 
2465.000000	29.156000 
2464.000000	29.168882 
2463.000000	29.179651 
2462.000000	29.181096 
2461.000000	29.167123 
2460.000000	29.148854 
2459.000000	29.145449 
2458.000000	29.159448 
2457.000000	29.173901 
2456.000000	29.175588 
2455.000000	29.168380 
2454.000000	29.159837 
2453.000000	29.148014 
2452.000000	29.129220 
2451.000000	29.108181 
2450.000000	29.091731 
2449.000000	29.080926 
2448.000000	29.077801 
2447.000000	29.090860 
2446.000000	29.122159 
2445.000000	29.154659 
2444.000000	29.165443 
2443.000000	29.150778 
2442.000000	29.128487 
2441.000000	29.115281 
2440.000000	29.110320 
2439.000000	29.103071 
2438.000000	29.090435 
2437.000000	29.080782 
2436.000000	29.082055 
2435.000000	29.089311 
2434.000000	29.087321 
2433.000000	29.067287 
2432.000000	29.038396 
2431.000000	29.018725 
2430.000000	29.016836 
2429.000000	29.027759 
2428.000000	29.043243 
2427.000000	29.055365 
2426.000000	29.051029 
2425.000000	29.018326 
2424.000000	28.965670 
2423.000000	28.922475 
2422.000000	28.909876 
2421.000000	28.918124 
2420.000000	28.922789 
2419.000000	28.915954 
2418.000000	28.909264 
2417.000000	28.911434 
2416.000000	28.917782 
2415.000000	28.922425 
2414.000000	28.926923 
2413.000000	28.931782 
2412.000000	28.929580 
2411.000000	28.913805 
2410.000000	28.889090 
2409.000000	28.866063 
2408.000000	28.848430 
2407.000000	28.830935 
2406.000000	28.810131 
2405.000000	28.792577 
2404.000000	28.789014 
2403.000000	28.800514 
2402.000000	28.813172 
2401.000000	28.809425 
2400.000000	28.785368 
2399.000000	28.755433 
2398.000000	28.739260 
2397.000000	28.744818 
2396.000000	28.763537 
2395.000000	28.778908 
2394.000000	28.778601 
2393.000000	28.760503 
2392.000000	28.730044 
2391.000000	28.694036 
2390.000000	28.659117 
2389.000000	28.634302 
2388.000000	28.627391 
2387.000000	28.633277 
2386.000000	28.631190 
2385.000000	28.603462 
2384.000000	28.557178 
2383.000000	28.518085 
2382.000000	28.499857 
2381.000000	28.487017 
2380.000000	28.454091 
2379.000000	28.397020 
2378.000000	28.338435 
2377.000000	28.304485 
2376.000000	28.300891 
2375.000000	28.305181 
2374.000000	28.278452 
2373.000000	28.197092 
2372.000000	28.087626 
2371.000000	28.017743 
2370.000000	28.029622 
2369.000000	28.090913 
2368.000000	28.136025 
2367.000000	28.140372 
2366.000000	28.115728 
2365.000000	28.054466 
2364.000000	27.943843 
2363.000000	27.826363 
2362.000000	27.777502 
2361.000000	27.817570 
2360.000000	27.886744 
2359.000000	27.930467 
2358.000000	27.958078 
2357.000000	27.983397 
2356.000000	27.979505 
2355.000000	27.904442 
2354.000000	27.757860 
2353.000000	27.594323 
2352.000000	27.479591 
2351.000000	27.454216 
2350.000000	27.501369 
2349.000000	27.571891 
2348.000000	27.620948 
2347.000000	27.620903 
2346.000000	27.573416 
2345.000000	27.498617 
2344.000000	27.444861 
2343.000000	27.438166 
2342.000000	27.437976 
2341.000000	27.382698 
2340.000000	27.254439 
2339.000000	27.116214 
2338.000000	27.033595 
2337.000000	27.007294 
2336.000000	26.992456 
2335.000000	26.979922 
2334.000000	27.013029 
2333.000000	27.125832 
2332.000000	27.285003 
2331.000000	27.421647 
2330.000000	27.491174 
2329.000000	27.506696 
2328.000000	27.510686 
2327.000000	27.516134 
2326.000000	27.516315 
2325.000000	27.489261 
2324.000000	27.437906 
2323.000000	27.374288 
2322.000000	27.311829 
2321.000000	27.264497 
2320.000000	27.245851 
2319.000000	27.268914 
2318.000000	27.320749 
2317.000000	27.374031 
2316.000000	27.404451 
2315.000000	27.408082 
2314.000000	27.390817 
2313.000000	27.356852 
2312.000000	27.314617 
2311.000000	27.278628 
2310.000000	27.265259 
2309.000000	27.273423 
2308.000000	27.292135 
2307.000000	27.308615 
2306.000000	27.322329 
2305.000000	27.336296 
2304.000000	27.353141 
2303.000000	27.366907 
2302.000000	27.367967 
2301.000000	27.352065 
2300.000000	27.330592 
2299.000000	27.321455 
2298.000000	27.333044 
2297.000000	27.355679 
2296.000000	27.376930 
2295.000000	27.391080 
2294.000000	27.399071 
2293.000000	27.398656 
2292.000000	27.391644 
2291.000000	27.385792 
2290.000000	27.386708 
2289.000000	27.383770 
2288.000000	27.359728 
2287.000000	27.312549 
2286.000000	27.263450 
2285.000000	27.239414 
2284.000000	27.251626 
2283.000000	27.289123 
2282.000000	27.326800 
2281.000000	27.340991 
2280.000000	27.324223 
2279.000000	27.289705 
2278.000000	27.256769 
2277.000000	27.233250 
2276.000000	27.215243 
2275.000000	27.203837 
2274.000000	27.210091 
2273.000000	27.238192 
2272.000000	27.271470 
2271.000000	27.284349 
2270.000000	27.267512 
2269.000000	27.234604 
2268.000000	27.206043 
2267.000000	27.191894 
2266.000000	27.190881 
2265.000000	27.198572 
2264.000000	27.211128 
2263.000000	27.223258 
2262.000000	27.229199 
2261.000000	27.227228 
2260.000000	27.221536 
2259.000000	27.215900 
2258.000000	27.207274 
2257.000000	27.190433 
2256.000000	27.169153 
2255.000000	27.157923 
2254.000000	27.165695 
2253.000000	27.181219 
2252.000000	27.180868 
2251.000000	27.153299 
2250.000000	27.110947 
2249.000000	27.075193 
2248.000000	27.056183 
2247.000000	27.050703 
2246.000000	27.053694 
2245.000000	27.061563 
2244.000000	27.065361 
2243.000000	27.050607 
2242.000000	27.011059 
2241.000000	26.959434 
2240.000000	26.919364 
2239.000000	26.906341 
2238.000000	26.917730 
2237.000000	26.937986 
2236.000000	26.949361 
2235.000000	26.940172 
2234.000000	26.910903 
2233.000000	26.876227 
2232.000000	26.855756 
2231.000000	26.856436 
2230.000000	26.865246 
2229.000000	26.864571 
2228.000000	26.854318 
2227.000000	26.852129 
2226.000000	26.868727 
2225.000000	26.889846 
2224.000000	26.890098 
2223.000000	26.862193 
2222.000000	26.823779 
2221.000000	26.794053 
2220.000000	26.772424 
2219.000000	26.746393 
2218.000000	26.714115 
2217.000000	26.688702 
2216.000000	26.680802 
2215.000000	26.686390 
2214.000000	26.694798 
2213.000000	26.700682 
2212.000000	26.702064 
2211.000000	26.693081 
2210.000000	26.668512 
2209.000000	26.634916 
2208.000000	26.608789 
2207.000000	26.600701 
2206.000000	26.605992 
2205.000000	26.612759 
2204.000000	26.613870 
2203.000000	26.608602 
2202.000000	26.597945 
2201.000000	26.583770 
2200.000000	26.570259 
2199.000000	26.560840 
2198.000000	26.553549 
2197.000000	26.542793 
2196.000000	26.526044 
2195.000000	26.506604 
2194.000000	26.490267 
2193.000000	26.481655 
2192.000000	26.482824 
2191.000000	26.491178 
2190.000000	26.497632 
2189.000000	26.491405 
2188.000000	26.471170 
2187.000000	26.450175 
2186.000000	26.445349 
2185.000000	26.458706 
2184.000000	26.471500 
2183.000000	26.460001 
2182.000000	26.417908 
2181.000000	26.362320 
2180.000000	26.317871 
2179.000000	26.296533 
2178.000000	26.292461 
2177.000000	26.292774 
2176.000000	26.290775 
2175.000000	26.289931 
2174.000000	26.296777 
2173.000000	26.309887 
2172.000000	26.316518 
2171.000000	26.303182 
2170.000000	26.270168 
2169.000000	26.231745 
2168.000000	26.200376 
2167.000000	26.175762 
2166.000000	26.152691 
2165.000000	26.133061 
2164.000000	26.122760 
2163.000000	26.121369 
2162.000000	26.124641 
2161.000000	26.134670 
2160.000000	26.155752 
2159.000000	26.178765 
2158.000000	26.181734 
2157.000000	26.152477 
2156.000000	26.103449 
2155.000000	26.058486 
2154.000000	26.031439 
2153.000000	26.023223 
2152.000000	26.031681 
2151.000000	26.053672 
2150.000000	26.079356 
2149.000000	26.094125 
2148.000000	26.090095 
2147.000000	26.073216 
2146.000000	26.057711 
2145.000000	26.053205 
2144.000000	26.055448 
2143.000000	26.050410 
2142.000000	26.031268 
2141.000000	26.010029 
2140.000000	26.005047 
2139.000000	26.015937 
2138.000000	26.020252 
2137.000000	26.000368 
2136.000000	25.965575 
2135.000000	25.939606 
2134.000000	25.932251 
2133.000000	25.932219 
2132.000000	25.924467 
2131.000000	25.905681 
2130.000000	25.883618 
2129.000000	25.869010 
2128.000000	25.869357 
2127.000000	25.885790 
2126.000000	25.914566 
2125.000000	25.951908 
2124.000000	25.993250 
2123.000000	26.025704 
2122.000000	26.029181 
2121.000000	25.993496 
2120.000000	25.931448 
2119.000000	25.868305 
2118.000000	25.821274 
2117.000000	25.794278 
2116.000000	25.786155 
2115.000000	25.793377 
2114.000000	25.807115 
2113.000000	25.818184 
2112.000000	25.825688 
2111.000000	25.833012 
2110.000000	25.835566 
2109.000000	25.821075 
2108.000000	25.783775 
2107.000000	25.732458 
2106.000000	25.684184 
2105.000000	25.654540 
2104.000000	25.650450 
2103.000000	25.663805 
2102.000000	25.673616 
2101.000000	25.664416 
2100.000000	25.643844 
2099.000000	25.633952 
2098.000000	25.644448 
2097.000000	25.662740 
2096.000000	25.670689 
2095.000000	25.661362 
2094.000000	25.637374 
2093.000000	25.603709 
2092.000000	25.567951 
2091.000000	25.539714 
2090.000000	25.523352 
2089.000000	25.515157 
2088.000000	25.510655 
2087.000000	25.508946 
2086.000000	25.507014 
2085.000000	25.496796 
2084.000000	25.472810 
2083.000000	25.438394 
2082.000000	25.402124 
2081.000000	25.373981 
2080.000000	25.365948 
2079.000000	25.385450 
2078.000000	25.420871 
2077.000000	25.442057 
2076.000000	25.426267 
2075.000000	25.380497 
2074.000000	25.330147 
2073.000000	25.289349 
2072.000000	25.251624 
2071.000000	25.208266 
2070.000000	25.165336 
2069.000000	25.138145 
2068.000000	25.133759 
2067.000000	25.142238 
2066.000000	25.142827 
2065.000000	25.118710 
2064.000000	25.070435 
2063.000000	25.016679 
2062.000000	24.979192 
2061.000000	24.964881 
2060.000000	24.961503 
2059.000000	24.949677 
2058.000000	24.919574 
2057.000000	24.878980 
2056.000000	24.847605 
2055.000000	24.841239 
2054.000000	24.857196 
2053.000000	24.874573 
2052.000000	24.871310 
2051.000000	24.842023 
2050.000000	24.798977 
2049.000000	24.758069 
2048.000000	24.726037 
2047.000000	24.698072 
2046.000000	24.662803 
2045.000000	24.611046 
2044.000000	24.545818 
2043.000000	24.484734 
2042.000000	24.446486 
2041.000000	24.431181 
2040.000000	24.417938 
2039.000000	24.386165 
2038.000000	24.336136 
2037.000000	24.285179 
2036.000000	24.247510 
2035.000000	24.222426 
2034.000000	24.199074 
2033.000000	24.165527 
2032.000000	24.113477 
2031.000000	24.042456 
2030.000000	23.963970 
2029.000000	23.896509 
2028.000000	23.850566 
2027.000000	23.819297 
2026.000000	23.787003 
2025.000000	23.745757 
2024.000000	23.702038 
2023.000000	23.668728 
2022.000000	23.651372 
2021.000000	23.639946 
2020.000000	23.613770 
2019.000000	23.558664 
2018.000000	23.481878 
2017.000000	23.406689 
2016.000000	23.349272 
2015.000000	23.306496 
2014.000000	23.270001 
2013.000000	23.241647 
2012.000000	23.225651 
2011.000000	23.212486 
2010.000000	23.183227 
2009.000000	23.130416 
2008.000000	23.065559 
2007.000000	23.004182 
2006.000000	22.949982 
2005.000000	22.894163 
2004.000000	22.824353 
2003.000000	22.735308 
2002.000000	22.638009 
2001.000000	22.557253 
2000.000000	22.510971 
1999.000000	22.491058 
1998.000000	22.472572 
1997.000000	22.441071 
1996.000000	22.401267 
1995.000000	22.359487 
1994.000000	22.311810 
1993.000000	22.255442 
1992.000000	22.200867 
1991.000000	22.161676 
1990.000000	22.137859 
1989.000000	22.118480 
1988.000000	22.094680 
1987.000000	22.063610 
1986.000000	22.026256 
1985.000000	21.986706 
1984.000000	21.948490 
1983.000000	21.907584 
1982.000000	21.854986 
1981.000000	21.790853 
1980.000000	21.729383 
1979.000000	21.684275 
1978.000000	21.655189 
1977.000000	21.633007 
1976.000000	21.610911 
1975.000000	21.583474 
1974.000000	21.543019 
1973.000000	21.487485 
1972.000000	21.427370 
1971.000000	21.374739 
1970.000000	21.328348 
1969.000000	21.279012 
1968.000000	21.227241 
1967.000000	21.184764 
1966.000000	21.156765 
1965.000000	21.133406 
1964.000000	21.103022 
1963.000000	21.064694 
1962.000000	21.025279 
1961.000000	20.990196 
1960.000000	20.958455 
1959.000000	20.923601 
1958.000000	20.880079 
1957.000000	20.832137 
1956.000000	20.794555 
1955.000000	20.779414 
1954.000000	20.782785 
1953.000000	20.788389 
1952.000000	20.781752 
1951.000000	20.755629 
1950.000000	20.707937 
1949.000000	20.644883 
1948.000000	20.583035 
1947.000000	20.537888 
1946.000000	20.509225 
1945.000000	20.484977 
1944.000000	20.459174 
1943.000000	20.437317 
1942.000000	20.422050 
1941.000000	20.404369 
1940.000000	20.376963 
1939.000000	20.346352 
1938.000000	20.324230 
1937.000000	20.313278 
1936.000000	20.305136 
1935.000000	20.289449 
1934.000000	20.263362 
1933.000000	20.234958 
1932.000000	20.218052 
1931.000000	20.218367 
1930.000000	20.224344 
1929.000000	20.217301 
1928.000000	20.190909 
1927.000000	20.155323 
1926.000000	20.120820 
1925.000000	20.086003 
1924.000000	20.046999 
1923.000000	20.011241 
1922.000000	19.992072 
1921.000000	19.990040 
1920.000000	19.990051 
1919.000000	19.976327 
1918.000000	19.945444 
1917.000000	19.906394 
1916.000000	19.869982 
1915.000000	19.842865 
1914.000000	19.828980 
1913.000000	19.827290 
1912.000000	19.827280 
1911.000000	19.812915 
1910.000000	19.777357 
1909.000000	19.732402 
1908.000000	19.696241 
1907.000000	19.674385 
1906.000000	19.660102 
1905.000000	19.649924 
1904.000000	19.647081 
1903.000000	19.647269 
1902.000000	19.633377 
1901.000000	19.593456 
1900.000000	19.538191 
1899.000000	19.491672 
1898.000000	19.466094 
1897.000000	19.452226 
1896.000000	19.433442 
1895.000000	19.402692 
1894.000000	19.365789 
1893.000000	19.333446 
1892.000000	19.313177 
1891.000000	19.305969 
1890.000000	19.306389 
1889.000000	19.305367 
1888.000000	19.295579 
1887.000000	19.276339 
1886.000000	19.252925 
1885.000000	19.232136 
1884.000000	19.218660 
1883.000000	19.212158 
1882.000000	19.207719 
1881.000000	19.200257 
1880.000000	19.187154 
1879.000000	19.167291 
1878.000000	19.139829 
1877.000000	19.106125 
1876.000000	19.072032 
1875.000000	19.044867 
1874.000000	19.027951 
1873.000000	19.019465 
1872.000000	19.014379 
1871.000000	19.005992 
1870.000000	18.988820 
1869.000000	18.965148 
1868.000000	18.943138 
1867.000000	18.922479 
1866.000000	18.893091 
1865.000000	18.849893 
1864.000000	18.801097 
1863.000000	18.763161 
1862.000000	18.748089 
1861.000000	18.753836 
1860.000000	18.765852 
1859.000000	18.768780 
1858.000000	18.758811 
1857.000000	18.743967 
1856.000000	18.729982 
1855.000000	18.708886 
1854.000000	18.668979 
1853.000000	18.617023 
1852.000000	18.580218 
1851.000000	18.579494 
1850.000000	18.605476 
1849.000000	18.626069 
1848.000000	18.617594 
1847.000000	18.583658 
1846.000000	18.543974 
1845.000000	18.515597 
1844.000000	18.505013 
1843.000000	18.503677 
1842.000000	18.495505 
1841.000000	18.472353 
1840.000000	18.437032 
1839.000000	18.401811 
1838.000000	18.382116 
1837.000000	18.381331 
1836.000000	18.385304 
1835.000000	18.376869 
1834.000000	18.352812 
1833.000000	18.321789 
1832.000000	18.291329 
1831.000000	18.265515 
1830.000000	18.253967 
1829.000000	18.264977 
1828.000000	18.286900 
1827.000000	18.296246 
1826.000000	18.279740 
1825.000000	18.247075 
1824.000000	18.223915 
1823.000000	18.220878 
1822.000000	18.222825 
1821.000000	18.212522 
1820.000000	18.190173 
1819.000000	18.169116 
1818.000000	18.158130 
1817.000000	18.155558 
1816.000000	18.156820 
1815.000000	18.157607 
1814.000000	18.152292 
1813.000000	18.135239 
1812.000000	18.106294 
1811.000000	18.074262 
1810.000000	18.054778 
1809.000000	18.064199 
1808.000000	18.106188 
1807.000000	18.160594 
1806.000000	18.193582 
1805.000000	18.183814 
1804.000000	18.137753 
1803.000000	18.078856 
1802.000000	18.028080 
1801.000000	17.995590 
1800.000000	17.979746 
1799.000000	17.968005 
1798.000000	17.949102 
1797.000000	17.929188 
1796.000000	17.926057 
1795.000000	17.945923 
1794.000000	17.974210 
1793.000000	17.992404 
1792.000000	18.000619 
1791.000000	18.008291 
1790.000000	18.012125 
1789.000000	18.006538 
1788.000000	17.998348 
1787.000000	17.999076 
1786.000000	18.010283 
1785.000000	18.019905 
1784.000000	18.015173 
1783.000000	17.993973 
1782.000000	17.962117 
1781.000000	17.927844 
1780.000000	17.903189 
1779.000000	17.898035 
1778.000000	17.909564 
1777.000000	17.927430 
1776.000000	17.946181 
1775.000000	17.967893 
1774.000000	17.991885 
1773.000000	18.005971 
1772.000000	17.998808 
1771.000000	17.975044 
1770.000000	17.947186 
1769.000000	17.923829 
1768.000000	17.911430 
1767.000000	17.915878 
1766.000000	17.934394 
1765.000000	17.952602 
1764.000000	17.955412 
1763.000000	17.937527 
1762.000000	17.909285 
1761.000000	17.888619 
1760.000000	17.884151 
1759.000000	17.889999 
1758.000000	17.889851 
1757.000000	17.868703 
1756.000000	17.831898 
1755.000000	17.803261 
1754.000000	17.795148 
1753.000000	17.795133 
1752.000000	17.785752 
1751.000000	17.772617 
1750.000000	17.776766 
1749.000000	17.795631 
1748.000000	17.800606 
1747.000000	17.773331 
1746.000000	17.722907 
1745.000000	17.668927 
1744.000000	17.625580 
1743.000000	17.601528 
1742.000000	17.599797 
1741.000000	17.614709 
1740.000000	17.634801 
1739.000000	17.649418 
1738.000000	17.656631 
1737.000000	17.664406 
1736.000000	17.678009 
1735.000000	17.687171 
1734.000000	17.674760 
1733.000000	17.632894 
1732.000000	17.579229 
1731.000000	17.543730 
1730.000000	17.536111 
1729.000000	17.549134 
1728.000000	17.575156 
1727.000000	17.611127 
1726.000000	17.653457 
1725.000000	17.690194 
1724.000000	17.704843 
1723.000000	17.689166 
1722.000000	17.651297 
1721.000000	17.609474 
1720.000000	17.577637 
1719.000000	17.558995 
1718.000000	17.554886 
1717.000000	17.573151 
1716.000000	17.616041 
1715.000000	17.668203 
1714.000000	17.703595 
1713.000000	17.703999 
1712.000000	17.674281 
1711.000000	17.632615 
1710.000000	17.591013 
1709.000000	17.555093 
1708.000000	17.534089 
1707.000000	17.537503 
1706.000000	17.556607 
1705.000000	17.560811 
1704.000000	17.526217 
1703.000000	17.459999 
1702.000000	17.379802 
1701.000000	17.303172 
1700.000000	17.258640 
1699.000000	17.239479 
1698.000000	17.218760 
1697.000000	17.206006 
1696.000000	17.226802 
1695.000000	17.279059 
1694.000000	17.324572 
1693.000000	17.341790 
1692.000000	17.336119 
1691.000000	17.314090 
1690.000000	17.285519 
1689.000000	17.260789 
1688.000000	17.242933 
1687.000000	17.226745 
1686.000000	17.202826 
1685.000000	17.167703 
1684.000000	17.147140 
1683.000000	17.150030 
1682.000000	17.145757 
1681.000000	17.118550 
1680.000000	17.071188 
1679.000000	17.023771 
1678.000000	17.003254 
1677.000000	17.010085 
1676.000000	17.016790 
1675.000000	16.999948 
1674.000000	16.968288 
1673.000000	16.941604 
1672.000000	16.917082 
1671.000000	16.870122 
1670.000000	16.792506 
1669.000000	16.718556 
1668.000000	16.681042 
1667.000000	16.673052 
1666.000000	16.672278 
1665.000000	16.666343 
1664.000000	16.656964 
1663.000000	16.651752 
1662.000000	16.645998 
1661.000000	16.621573 
1660.000000	16.572697 
1659.000000	16.513423 
1658.000000	16.461156 
1657.000000	16.424501 
1656.000000	16.397798 
1655.000000	16.368927 
1654.000000	16.323142 
1653.000000	16.267442 
1652.000000	16.198507 
1651.000000	16.124403 
1650.000000	16.085163 
1649.000000	16.079669 
1648.000000	16.083266 
1647.000000	16.086727 
1646.000000	16.081811 
1645.000000	16.054589 
1644.000000	16.009088 
1643.000000	15.962623 
1642.000000	15.923948 
1641.000000	15.896691 
1640.000000	15.883020 
1639.000000	15.878712 
1638.000000	15.872428 
1637.000000	15.851432 
1636.000000	15.819589 
1635.000000	15.795001 
1634.000000	15.778413 
1633.000000	15.762660 
1632.000000	15.747132 
1631.000000	15.725493 
1630.000000	15.691583 
1629.000000	15.649380 
1628.000000	15.613908 
1627.000000	15.600411 
1626.000000	15.610898 
1625.000000	15.634387 
1624.000000	15.653370 
1623.000000	15.653466 
1622.000000	15.636586 
1621.000000	15.624000 
1620.000000	15.637368 
1619.000000	15.676327 
1618.000000	15.712135 
1617.000000	15.711850 
1616.000000	15.683205 
1615.000000	15.670863 
1614.000000	15.698054 
1613.000000	15.746309 
1612.000000	15.782987 
1611.000000	15.788509 
1610.000000	15.766396 
1609.000000	15.735061 
1608.000000	15.714992 
1607.000000	15.717820 
1606.000000	15.737200 
1605.000000	15.751531 
1604.000000	15.744700 
1603.000000	15.722879 
1602.000000	15.704189 
1601.000000	15.695181 
1600.000000	15.686308 
1599.000000	15.666059 
1598.000000	15.629350 
1597.000000	15.578536 
1596.000000	15.528022 
1595.000000	15.502486 
1594.000000	15.515583 
1593.000000	15.551215 
1592.000000	15.578752 
1591.000000	15.582980 
1590.000000	15.569867 
1589.000000	15.549978 
1588.000000	15.528233 
1587.000000	15.508573 
1586.000000	15.495239 
1585.000000	15.485766 
1584.000000	15.471194 
1583.000000	15.446746 
1582.000000	15.415711 
1581.000000	15.383658 
1580.000000	15.358341 
1579.000000	15.353693 
1578.000000	15.381549 
1577.000000	15.431966 
1576.000000	15.467568 
1575.000000	15.461811 
1574.000000	15.436915 
1573.000000	15.422689 
1572.000000	15.415805 
1571.000000	15.398330 
1570.000000	15.371455 
1569.000000	15.358039 
1568.000000	15.366821 
1567.000000	15.388486 
1566.000000	15.411524 
1565.000000	15.420510 
1564.000000	15.403422 
1563.000000	15.371902 
1562.000000	15.346005 
1561.000000	15.336705 
1560.000000	15.325300 
1559.000000	15.315222 
1558.000000	15.321828 
1557.000000	15.321833 
1556.000000	15.312092 
1555.000000	15.298122 
1554.000000	15.277640 
1553.000000	15.260079 
1552.000000	15.251006 
1551.000000	15.244611 
1550.000000	15.232287 
1549.000000	15.214682 
1548.000000	15.197302 
1547.000000	15.181072 
1546.000000	15.163896 
1545.000000	15.145936 
1544.000000	15.128562 
1543.000000	15.105542 
1542.000000	15.067575 
1541.000000	15.020421 
1540.000000	14.991326 
1539.000000	14.976819 
1538.000000	14.947921 
1537.000000	14.915756 
1536.000000	14.902539 
1535.000000	14.905278 
1534.000000	14.912754 
1533.000000	14.918897 
1532.000000	14.922920 
1531.000000	14.925894 
1530.000000	14.928565 
1529.000000	14.927754 
1528.000000	14.917474 
1527.000000	14.891475 
1526.000000	14.849352 
1525.000000	14.807409 
1524.000000	14.792904 
1523.000000	14.817913 
1522.000000	14.859147 
1521.000000	14.866583 
1520.000000	14.817317 
1519.000000	14.742396 
1518.000000	14.674596 
1517.000000	14.623126 
1516.000000	14.591899 
1515.000000	14.578668 
1514.000000	14.573603 
1513.000000	14.568521 
1512.000000	14.562465 
1511.000000	14.558836 
1510.000000	14.550064 
1509.000000	14.521448 
1508.000000	14.469548 
1507.000000	14.437565 
1506.000000	14.458174 
1505.000000	14.478678 
1504.000000	14.462245 
1503.000000	14.425591 
1502.000000	14.379711 
1501.000000	14.330821 
1500.000000	14.288260 
1499.000000	14.257991 
1498.000000	14.231138 
1497.000000	14.188618 
1496.000000	14.123633 
1495.000000	14.049533 
1494.000000	13.987137 
1493.000000	13.951513 
1492.000000	13.948310 
1491.000000	13.969337 
1490.000000	13.985550 
1489.000000	13.965174 
1488.000000	13.909873 
1487.000000	13.847192 
1486.000000	13.796381 
1485.000000	13.760939 
1484.000000	13.736954 
1483.000000	13.719221 
1482.000000	13.701174 
1481.000000	13.677450 
1480.000000	13.648852 
1479.000000	13.617971 
1478.000000	13.581499 
1477.000000	13.534343 
1476.000000	13.481459 
1475.000000	13.433409 
1474.000000	13.389077 
1473.000000	13.334145 
1472.000000	13.264925 
1471.000000	13.199687 
1470.000000	13.156036 
1469.000000	13.134123 
1468.000000	13.121295 
1467.000000	13.102488 
1466.000000	13.067975 
1465.000000	13.019550 
1464.000000	12.967077 
1463.000000	12.916299 
1462.000000	12.867626 
1461.000000	12.822295 
1460.000000	12.781149 
1459.000000	12.742539 
1458.000000	12.702889 
1457.000000	12.664721 
1456.000000	12.630275 
1455.000000	12.596897 
1454.000000	12.562817 
1453.000000	12.521290 
1452.000000	12.468564 
1451.000000	12.412806 
1450.000000	12.364227 
1449.000000	12.326107 
1448.000000	12.295549 
1447.000000	12.265550 
1446.000000	12.230825 
1445.000000	12.195533 
1444.000000	12.169457 
1443.000000	12.156334 
1442.000000	12.150802 
1441.000000	12.149396 
1440.000000	12.154135 
1439.000000	12.158442 
1438.000000	12.136672 
1437.000000	12.068474 
1436.000000	11.982312 
1435.000000	11.930078 
1434.000000	11.918927 
1433.000000	11.919741 
1432.000000	11.909194 
1431.000000	11.882934 
1430.000000	11.849760 
1429.000000	11.823316 
1428.000000	11.818384 
1427.000000	11.837058 
1426.000000	11.857916 
1425.000000	11.847548 
1424.000000	11.794423 
1423.000000	11.728582 
1422.000000	11.687106 
1421.000000	11.676298 
1420.000000	11.678844 
1419.000000	11.677582 
1418.000000	11.664020 
1417.000000	11.636172 
1416.000000	11.596901 
1415.000000	11.551819 
1414.000000	11.509435 
1413.000000	11.479020 
1412.000000	11.462815 
1411.000000	11.450370 
1410.000000	11.425142 
1409.000000	11.382649 
1408.000000	11.337083 
1407.000000	11.303712 
1406.000000	11.282445 
1405.000000	11.265614 
1404.000000	11.256639 
1403.000000	11.267198 
1402.000000	11.297912 
1401.000000	11.335690 
1400.000000	11.363891 
1399.000000	11.367461 
1398.000000	11.335807 
1397.000000	11.271461 
1396.000000	11.196711 
1395.000000	11.144863 
1394.000000	11.130412 
1393.000000	11.132394 
1392.000000	11.127015 
1391.000000	11.115500 
1390.000000	11.109752 
1389.000000	11.111538 
1388.000000	11.111238 
1387.000000	11.102543 
1386.000000	11.090193 
1385.000000	11.078749 
1384.000000	11.062599 
1383.000000	11.031919 
1382.000000	10.984723 
1381.000000	10.931842 
1380.000000	10.888658 
1379.000000	10.862020 
1378.000000	10.846181 
1377.000000	10.831281 
1376.000000	10.814047 
1375.000000	10.798666 
1374.000000	10.788538 
1373.000000	10.780052 
1372.000000	10.768610 
1371.000000	10.756009 
1370.000000	10.747615 
1369.000000	10.745917 
1368.000000	10.747290 
1367.000000	10.743246 
1366.000000	10.726198 
1365.000000	10.695708 
1364.000000	10.659344 
1363.000000	10.627080 
1362.000000	10.603959 
1361.000000	10.590557 
1360.000000	10.588193 
1359.000000	10.594190 
1358.000000	10.594423 
1357.000000	10.571949 
1356.000000	10.526332 
1355.000000	10.477769 
1354.000000	10.447325 
1353.000000	10.437831 
1352.000000	10.437595 
1351.000000	10.434645 
1350.000000	10.422156 
1349.000000	10.395962 
1348.000000	10.355388 
1347.000000	10.307323 
1346.000000	10.265229 
1345.000000	10.242086 
1344.000000	10.241655 
1343.000000	10.252951 
1342.000000	10.254674 
1341.000000	10.231905 
1340.000000	10.193488 
1339.000000	10.166497 
1338.000000	10.162983 
1337.000000	10.161922 
1336.000000	10.135386 
1335.000000	10.082233 
1334.000000	10.028643 
1333.000000	9.999557  
1332.000000	9.993551  
1331.000000	9.986115  
1330.000000	9.955832  
1329.000000	9.906224  
1328.000000	9.861611  
1327.000000	9.842107  
1326.000000	9.843691  
1325.000000	9.843274  
1324.000000	9.822878  
1323.000000	9.786884  
1322.000000	9.753938  
1321.000000	9.734457  
1320.000000	9.720379  
1319.000000	9.697794  
1318.000000	9.666282  
1317.000000	9.640395  
1316.000000	9.631289  
1315.000000	9.632879  
1314.000000	9.629862  
1313.000000	9.616834  
1312.000000	9.603819  
1311.000000	9.602207  
1310.000000	9.612142  
1309.000000	9.625698  
1308.000000	9.634031  
1307.000000	9.627095  
1306.000000	9.595449  
1305.000000	9.541500  
1304.000000	9.485602  
1303.000000	9.452052  
1302.000000	9.446936  
1301.000000	9.453387  
1300.000000	9.448031  
1299.000000	9.419120  
1298.000000	9.372658  
1297.000000	9.327404  
1296.000000	9.300982  
1295.000000	9.292837  
1294.000000	9.281957  
1293.000000	9.249050  
1292.000000	9.199559  
1291.000000	9.156218  
1290.000000	9.129832  
1289.000000	9.108384  
1288.000000	9.077765  
1287.000000	9.042963  
1286.000000	9.020285  
1285.000000	9.013480  
1284.000000	9.008032  
1283.000000	8.990442  
1282.000000	8.966735  
1281.000000	8.956418  
1280.000000	8.967392  
1279.000000	8.981997  
1278.000000	8.974361  
1277.000000	8.940640  
1276.000000	8.903289  
1275.000000	8.882702  
1274.000000	8.874681  
1273.000000	8.863058  
1272.000000	8.844488  
1271.000000	8.826990  
1270.000000	8.809172  
1269.000000	8.779311  
1268.000000	8.738571  
1267.000000	8.709052  
1266.000000	8.708752  
1265.000000	8.726771  
1264.000000	8.732556  
1263.000000	8.706697  
1262.000000	8.658357  
1261.000000	8.615479  
1260.000000	8.600205  
1259.000000	8.610526  
1258.000000	8.623234  
1257.000000	8.615547  
1256.000000	8.582720  
1255.000000	8.534041  
1254.000000	8.478012  
1253.000000	8.418885  
1252.000000	8.364503  
1251.000000	8.325902  
1250.000000	8.305634  
1249.000000	8.293891  
1248.000000	8.279738  
1247.000000	8.261392  
1246.000000	8.242949  
1245.000000	8.226032  
1244.000000	8.206527  
1243.000000	8.175936  
1242.000000	8.128291  
1241.000000	8.071716  
1240.000000	8.028943  
1239.000000	8.014486  
1238.000000	8.011246  
1237.000000	7.983327  
1236.000000	7.916564  
1235.000000	7.835410  
1234.000000	7.775013  
1233.000000	7.748161  
1232.000000	7.746074  
1231.000000	7.757583  
1230.000000	7.773929  
1229.000000	7.782335  
1228.000000	7.770124  
1227.000000	7.736388  
1226.000000	7.691440  
1225.000000	7.644354  
1224.000000	7.597694  
1223.000000	7.554616  
1222.000000	7.523147  
1221.000000	7.509530  
1220.000000	7.510346  
1219.000000	7.513822  
1218.000000	7.508335  
1217.000000	7.489568  
1216.000000	7.461491  
1215.000000	7.431113  
1214.000000	7.403159  
1213.000000	7.381126  
1212.000000	7.370299  
1211.000000	7.373791  
1210.000000	7.384718  
1209.000000	7.387742  
1208.000000	7.372112  
1207.000000	7.341281  
1206.000000	7.308032  
1205.000000	7.283120  
1204.000000	7.270704  
1203.000000	7.270315  
1202.000000	7.278561  
1201.000000	7.289274  
1200.000000	7.294605  
1199.000000	7.288097  
1198.000000	7.267334  
1197.000000	7.234086  
1196.000000	7.193813  
1195.000000	7.157026  
1194.000000	7.139056  
1193.000000	7.151947  
1192.000000	7.191393  
1191.000000	7.233092  
1190.000000	7.249212  
1189.000000	7.232867  
1188.000000	7.204803  
1187.000000	7.194751  
1186.000000	7.215943  
1185.000000	7.255596  
1184.000000	7.287038  
1183.000000	7.291036  
1182.000000	7.268270  
1181.000000	7.232485  
1180.000000	7.194284  
1179.000000	7.158472  
1178.000000	7.136620  
1177.000000	7.147275  
1176.000000	7.192051  
1175.000000	7.240928  
1174.000000	7.258330  
1173.000000	7.241741  
1172.000000	7.219086  
1171.000000	7.210811  
1170.000000	7.213021  
1169.000000	7.217265  
1168.000000	7.224473  
1167.000000	7.232714  
1166.000000	7.230818  
1165.000000	7.213663  
1164.000000	7.188539  
1163.000000	7.159938  
1162.000000	7.125902  
1161.000000	7.097113  
1160.000000	7.096487  
1159.000000	7.123933  
1158.000000	7.143953  
1157.000000	7.129729  
1156.000000	7.101012  
1155.000000	7.095552  
1154.000000	7.117261  
1153.000000	7.136279  
1152.000000	7.130670  
1151.000000	7.105230  
1150.000000	7.075243  
1149.000000	7.053177  
1148.000000	7.048937  
1147.000000	7.063192  
1146.000000	7.079712  
1145.000000	7.080514  
1144.000000	7.067130  
1143.000000	7.052994  
1142.000000	7.042159  
1141.000000	7.034012  
1140.000000	7.040371  
1139.000000	7.072813  
1138.000000	7.115052  
1137.000000	7.133646  
1136.000000	7.120886  
1135.000000	7.103965  
1134.000000	7.104065  
1133.000000	7.109084  
1132.000000	7.099918  
1131.000000	7.084571  
1130.000000	7.087154  
1129.000000	7.113431  
1128.000000	7.144939  
1127.000000	7.163556  
1126.000000	7.169353  
1125.000000	7.173794  
1124.000000	7.184123  
1123.000000	7.198872  
1122.000000	7.216070  
1121.000000	7.238121  
1120.000000	7.262441  
1119.000000	7.276344  
1118.000000	7.276542  
1117.000000	7.287237  
1116.000000	7.334395  
1115.000000	7.399681  
1114.000000	7.429992  
1113.000000	7.405999  
1112.000000	7.370722  
1111.000000	7.369235  
1110.000000	7.389876  
1109.000000	7.393900  
1108.000000	7.376697  
1107.000000	7.360438  
1106.000000	7.343508  
1105.000000	7.306131  
1104.000000	7.263567  
1103.000000	7.260752  
1102.000000	7.299208  
1101.000000	7.316230  
1100.000000	7.263977  
1099.000000	7.174750  
1098.000000	7.119870  
1097.000000	7.129906  
1096.000000	7.184625  
1095.000000	7.257328  
1094.000000	7.330383  
1093.000000	7.381056  
1092.000000	7.392912  
1091.000000	7.384081  
1090.000000	7.393121  
1089.000000	7.424076  
1088.000000	7.430346  
1087.000000	7.373344  
1086.000000	7.283257  
1085.000000	7.235996  
1084.000000	7.269499  
1083.000000	7.344068  
1082.000000	7.394109  
1081.000000	7.405280  
1080.000000	7.420427  
1079.000000	7.475421  
1078.000000	7.553712  
1077.000000	7.607347  
1076.000000	7.605138  
1075.000000	7.555642  
1074.000000	7.500734  
1073.000000	7.494736  
1072.000000	7.569618  
1071.000000	7.700328  
1070.000000	7.815934  
1069.000000	7.865809  
1068.000000	7.866343  
1067.000000	7.867068  
1066.000000	7.884866  
1065.000000	7.894891  
1064.000000	7.877164  
1063.000000	7.843648  
1062.000000	7.819173  
1061.000000	7.818677  
1060.000000	7.847808  
1059.000000	7.902103  
1058.000000	7.953979  
1057.000000	7.964975  
1056.000000	7.927125  
1055.000000	7.874737  
1054.000000	7.841834  
1053.000000	7.824783  
1052.000000	7.805644  
1051.000000	7.797357  
1050.000000	7.836975  
1049.000000	7.934988  
1048.000000	8.055032  
1047.000000	8.150779  
1046.000000	8.204574  
1045.000000	8.220595  
1044.000000	8.200797  
1043.000000	8.149641  
1042.000000	8.095415  
1041.000000	8.081260  
1040.000000	8.127139  
1039.000000	8.209103  
1038.000000	8.280708  
1037.000000	8.314839  
1036.000000	8.321816  
1035.000000	8.330669  
1034.000000	8.358676  
1033.000000	8.396797  
1032.000000	8.421617  
1031.000000	8.423522  
1030.000000	8.422816  
1029.000000	8.450994  
1028.000000	8.513338  
1027.000000	8.577685  
1026.000000	8.606331  
1025.000000	8.593763  
1024.000000	8.567998  
1023.000000	8.561728  
1022.000000	8.591260  
1021.000000	8.653778  
1020.000000	8.727619  
1019.000000	8.781811  
1018.000000	8.802204  
1017.000000	8.806292  
1016.000000	8.820529  
1015.000000	8.849151  
1014.000000	8.878917  
1013.000000	8.903756  
1012.000000	8.926028  
1011.000000	8.941476  
1010.000000	8.944355  
1009.000000	8.943023  
1008.000000	8.949892  
1007.000000	8.965674  
1006.000000	8.996947  
1005.000000	9.073193  
1004.000000	9.207308  
1003.000000	9.359959  
1002.000000	9.453330  
1001.000000	9.383989  
1000.000000	9.162453  
999.000000	 9.006937  
998.000000	 9.050658  
997.000000	 9.184958  
996.000000	 9.302332  
995.000000	 9.400660  
994.000000	 9.489684  
993.000000	 9.546979  
992.000000	 9.557998  
991.000000	 9.542838  
990.000000	 9.521139  
989.000000	 9.490405  
988.000000	 9.452672  
987.000000	 9.431530  
986.000000	 9.444438  
985.000000	 9.478626  
984.000000	 9.513468  
983.000000	 9.547122  
982.000000	 9.585958  
981.000000	 9.626950  
980.000000	 9.664953  
979.000000	 9.701477  
978.000000	 9.733821  
977.000000	 9.750556  
976.000000	 9.751705  
975.000000	 9.759889  
974.000000	 9.794920  
973.000000	 9.847875  
972.000000	 9.895963  
971.000000	 9.933017  
970.000000	 9.968023  
969.000000	 10.000729 
968.000000	 10.016032 
967.000000	 10.002182 
966.000000	 9.966303  
965.000000	 9.932864  
964.000000	 9.930852  
963.000000	 9.975323  
962.000000	 10.048605 
961.000000	 10.107059 
960.000000	 10.124388 
959.000000	 10.124294 
958.000000	 10.156457 
957.000000	 10.239641 
956.000000	 10.337523 
955.000000	 10.392573 
954.000000	 10.377347 
953.000000	 10.313557 
952.000000	 10.251913 
951.000000	 10.237575 
950.000000	 10.284507 
949.000000	 10.371192 
948.000000	 10.457965 
947.000000	 10.511581 
946.000000	 10.522937 
945.000000	 10.511890 
944.000000	 10.514599 
943.000000	 10.556874 
942.000000	 10.633004 
941.000000	 10.710689 
940.000000	 10.758524 
939.000000	 10.769162 
938.000000	 10.757815 
937.000000	 10.745336 
936.000000	 10.748031 
935.000000	 10.776538 
934.000000	 10.831348 
933.000000	 10.897557 
932.000000	 10.954295 
931.000000	 10.995097 
930.000000	 11.033908 
929.000000	 11.086008 
928.000000	 11.148497 
927.000000	 11.207631 
926.000000	 11.261690 
925.000000	 11.323595 
924.000000	 11.396964 
923.000000	 11.460244 
922.000000	 11.483012 
921.000000	 11.456262 
920.000000	 11.402428 
919.000000	 11.359993 
918.000000	 11.366291 
917.000000	 11.443140 
916.000000	 11.576666 
915.000000	 11.711875 
914.000000	 11.789726 
913.000000	 11.801479 
912.000000	 11.793571 
911.000000	 11.811039 
910.000000	 11.851059 
909.000000	 11.882942 
908.000000	 11.897400 
907.000000	 11.914899 
906.000000	 11.952400 
905.000000	 12.004374 
904.000000	 12.056826 
903.000000	 12.101740 
902.000000	 12.136944 
901.000000	 12.166189 
900.000000	 12.202116 
899.000000	 12.258344 
898.000000	 12.335369 
897.000000	 12.423888 
896.000000	 12.522063 
895.000000	 12.634650 
894.000000	 12.751966 
893.000000	 12.844969 
892.000000	 12.890709 
891.000000	 12.895712 
890.000000	 12.887059 
889.000000	 12.887980 
888.000000	 12.912167 
887.000000	 12.974255 
886.000000	 13.086966 
885.000000	 13.240089 
884.000000	 13.391335 
883.000000	 13.491190 
882.000000	 13.522862 
881.000000	 13.516769 
880.000000	 13.522272 
879.000000	 13.563784 
878.000000	 13.628262 
877.000000	 13.694438 
876.000000	 13.760912 
875.000000	 13.839264 
874.000000	 13.931294 
873.000000	 14.025937 
872.000000	 14.115728 
871.000000	 14.205138 
870.000000	 14.301507 
869.000000	 14.403503 
868.000000	 14.499762 
867.000000	 14.578035 
866.000000	 14.639965 
865.000000	 14.707908 
864.000000	 14.805131 
863.000000	 14.920832 
862.000000	 15.008742 
861.000000	 15.037868 
860.000000	 15.035605 
859.000000	 15.058719 
858.000000	 15.126483 
857.000000	 15.209692 
856.000000	 15.285541 
855.000000	 15.369328 
854.000000	 15.477679 
853.000000	 15.588503 
852.000000	 15.666608 
851.000000	 15.716565 
850.000000	 15.777531 
849.000000	 15.865436 
848.000000	 15.949900 
847.000000	 15.999384 
846.000000	 16.026157 
845.000000	 16.066115 
844.000000	 16.126203 
843.000000	 16.174553 
842.000000	 16.182545 
841.000000	 16.160763 
840.000000	 16.147664 
839.000000	 16.171462 
838.000000	 16.229341 
837.000000	 16.299064 
836.000000	 16.362913 
835.000000	 16.418261 
834.000000	 16.469819 
833.000000	 16.518804 
832.000000	 16.563741 
831.000000	 16.609063 
830.000000	 16.663196 
829.000000	 16.722518 
828.000000	 16.767188 
827.000000	 16.786866 
826.000000	 16.804922 
825.000000	 16.856723 
824.000000	 16.942468 
823.000000	 17.024816 
822.000000	 17.081026 
821.000000	 17.131619 
820.000000	 17.200628 
819.000000	 17.272286 
818.000000	 17.316256 
817.000000	 17.342460 
816.000000	 17.395191 
815.000000	 17.489716 
814.000000	 17.584490 
813.000000	 17.630583 
812.000000	 17.629904 
811.000000	 17.626397 
810.000000	 17.654620 
809.000000	 17.719194 
808.000000	 17.810571 
807.000000	 17.912026 
806.000000	 17.994545 
805.000000	 18.032243 
804.000000	 18.033337 
803.000000	 18.042084 
802.000000	 18.099508 
801.000000	 18.205185 
800.000000	 18.318822 
799.000000	 18.394986 
798.000000	 18.419383 
797.000000	 18.421798 
796.000000	 18.456574 
795.000000	 18.559416 
794.000000	 18.712686 
793.000000	 18.854924 
792.000000	 18.932311 
791.000000	 18.945738 
790.000000	 18.948012 
789.000000	 18.993524 
788.000000	 19.090049 
787.000000	 19.196651 
786.000000	 19.263944 
785.000000	 19.277613 
784.000000	 19.268865 
783.000000	 19.288047 
782.000000	 19.366839 
781.000000	 19.495835 
780.000000	 19.630491 
779.000000	 19.723190 
778.000000	 19.760514 
777.000000	 19.772774 
776.000000	 19.801991 
775.000000	 19.859774 
774.000000	 19.923171 
773.000000	 19.972353 
772.000000	 20.020370 
771.000000	 20.095453 
770.000000	 20.200614 
769.000000	 20.305010 
768.000000	 20.376828 
767.000000	 20.413989 
766.000000	 20.437547 
765.000000	 20.464601 
764.000000	 20.498859 
763.000000	 20.543536 
762.000000	 20.607986 
761.000000	 20.696588 
760.000000	 20.803726 
759.000000	 20.926596 
758.000000	 21.069298 
757.000000	 21.219563 
756.000000	 21.331175 
755.000000	 21.355864 
754.000000	 21.299345 
753.000000	 21.227462 
752.000000	 21.206552 
751.000000	 21.252563 
750.000000	 21.346771 
749.000000	 21.475076 
748.000000	 21.626458 
747.000000	 21.768887 
746.000000	 21.863251 
745.000000	 21.910385 
744.000000	 21.960169 
743.000000	 22.056423 
742.000000	 22.186827 
741.000000	 22.301696 
740.000000	 22.369042 
739.000000	 22.397003 
738.000000	 22.413291 
737.000000	 22.440347 
736.000000	 22.485661 
735.000000	 22.539645 
734.000000	 22.580345 
733.000000	 22.590252 
732.000000	 22.573358 
731.000000	 22.553889 
730.000000	 22.562083 
729.000000	 22.623129 
728.000000	 22.746602 
727.000000	 22.911381 
726.000000	 23.064480 
725.000000	 23.151519 
724.000000	 23.158442 
723.000000	 23.119424 
722.000000	 23.083454 
721.000000	 23.082869 
720.000000	 23.129629 
719.000000	 23.220405 
718.000000	 23.333206 
717.000000	 23.427854 
716.000000	 23.468265 
715.000000	 23.456025 
714.000000	 23.438887 
713.000000	 23.475684 
712.000000	 23.588065 
711.000000	 23.745169 
710.000000	 23.891148 
709.000000	 23.986601 
708.000000	 24.030388 
707.000000	 24.049501 
706.000000	 24.071506 
705.000000	 24.108902 
704.000000	 24.170476 
703.000000	 24.275802 
702.000000	 24.437066 
701.000000	 24.622242 
700.000000	 24.761116 
699.000000	 24.810230 
698.000000	 24.800604 
697.000000	 24.800202 
696.000000	 24.838280 
695.000000	 24.893820 
694.000000	 24.954540 
693.000000	 25.045072 
692.000000	 25.176947 
691.000000	 25.303689 
690.000000	 25.358056 
689.000000	 25.330841 
688.000000	 25.292052 
687.000000	 25.315609 
686.000000	 25.400911 
685.000000	 25.490817 
684.000000	 25.547441 
683.000000	 25.592185 
682.000000	 25.677154 
681.000000	 25.827700 
680.000000	 26.013791 
679.000000	 26.172720 
678.000000	 26.255299 
677.000000	 26.245617 
676.000000	 26.162918 
675.000000	 26.054137 
674.000000	 25.994669 
673.000000	 26.055588 
672.000000	 26.243793 
671.000000	 26.498427 
670.000000	 26.746656 
669.000000	 26.900109 
668.000000	 26.866696 
667.000000	 26.727168 
666.000000	 26.653446 
665.000000	 26.689609 
664.000000	 26.794201 
663.000000	 26.923526 
662.000000	 27.047148 
661.000000	 27.153079 
660.000000	 27.238329 
659.000000	 27.294895 
658.000000	 27.307492 
657.000000	 27.297556 
656.000000	 27.268419 
655.000000	 27.262854 
654.000000	 27.057903 
653.000000	 26.985361 
652.000000	 26.986463 
651.000000	 27.025206 
650.000000	 27.127080 

