PE IR                   SPECTRUM    ASCII       PEDS        1.60        
  -1
~SP.SP
22/02/22
10:05:54.00
22/02/22
10:05:54.00
Administrator

650.000000
4









SPECTRUM 100,CPU32 MAIN 00.02.7000 27-JANUARY-2006 11:32:41
MCT
MIR
OPTKBR
76073
1.000000

4.000000
STRONG
RATIO
SPECTRUM
MAGNITUDE
MIR INT SPHERE
DOUBLE

COMBINED


0


#HDR
-1
-1
#GR
CM-1
%T
0.00002384185791015625
0.0
4000.000000
-1.000000
3351
8
38.128815
6.779482
#DATA
4000.000000	32.581694 
3999.000000	32.602003 
3998.000000	32.622296 
3997.000000	32.647359 
3996.000000	32.667180 
3995.000000	32.662442 
3994.000000	32.638237 
3993.000000	32.610362 
3992.000000	32.594864 
3991.000000	32.592567 
3990.000000	32.589683 
3989.000000	32.573758 
3988.000000	32.546709 
3987.000000	32.520909 
3986.000000	32.504820 
3985.000000	32.494747 
3984.000000	32.480744 
3983.000000	32.458631 
3982.000000	32.434377 
3981.000000	32.417086 
3980.000000	32.410976 
3979.000000	32.415694 
3978.000000	32.430293 
3977.000000	32.451954 
3976.000000	32.471215 
3975.000000	32.474619 
3974.000000	32.457003 
3973.000000	32.429718 
3972.000000	32.412920 
3971.000000	32.418644 
3970.000000	32.441255 
3969.000000	32.464202 
3968.000000	32.475763 
3967.000000	32.479451 
3966.000000	32.489803 
3965.000000	32.518033 
3964.000000	32.562425 
3963.000000	32.612171 
3962.000000	32.658252 
3961.000000	32.697368 
3960.000000	32.725909 
3959.000000	32.734890 
3958.000000	32.715313 
3957.000000	32.668323 
3956.000000	32.608878 
3955.000000	32.558705 
3954.000000	32.533032 
3953.000000	32.530522 
3952.000000	32.534128 
3951.000000	32.523921 
3950.000000	32.492928 
3949.000000	32.452583 
3948.000000	32.422375 
3947.000000	32.414844 
3946.000000	32.429346 
3945.000000	32.456072 
3944.000000	32.483353 
3943.000000	32.503365 
3942.000000	32.514473 
3941.000000	32.518214 
3940.000000	32.514449 
3939.000000	32.499488 
3938.000000	32.468842 
3937.000000	32.422055 
3936.000000	32.367245 
3935.000000	32.323278 
3934.000000	32.313759 
3933.000000	32.352164 
3932.000000	32.426870 
3931.000000	32.502618 
3930.000000	32.542997 
3929.000000	32.533604 
3928.000000	32.486348 
3927.000000	32.427266 
3926.000000	32.380458 
3925.000000	32.356739 
3924.000000	32.351027 
3923.000000	32.350814 
3922.000000	32.349832 
3921.000000	32.352921 
3920.000000	32.369664 
3919.000000	32.404555 
3918.000000	32.449721 
3917.000000	32.485653 
3916.000000	32.493195 
3915.000000	32.470754 
3914.000000	32.438323 
3913.000000	32.420542 
3912.000000	32.426451 
3911.000000	32.445746 
3910.000000	32.463640 
3909.000000	32.476651 
3908.000000	32.490003 
3907.000000	32.504227 
3906.000000	32.507497 
3905.000000	32.483795 
3904.000000	32.432044 
3903.000000	32.373583 
3902.000000	32.337681 
3901.000000	32.337885 
3900.000000	32.361985 
3899.000000	32.384755 
3898.000000	32.388401 
3897.000000	32.371930 
3896.000000	32.346251 
3895.000000	32.322761 
3894.000000	32.308326 
3893.000000	32.306621 
3892.000000	32.316547 
3891.000000	32.326916 
3890.000000	32.320646 
3889.000000	32.292806 
3888.000000	32.255893 
3887.000000	32.224028 
3886.000000	32.202713 
3885.000000	32.187448 
3884.000000	32.168258 
3883.000000	32.142723 
3882.000000	32.121245 
3881.000000	32.117178 
3880.000000	32.135781 
3879.000000	32.164759 
3878.000000	32.182789 
3877.000000	32.182652 
3876.000000	32.173587 
3875.000000	32.164551 
3874.000000	32.156518 
3873.000000	32.147719 
3872.000000	32.138569 
3871.000000	32.128867 
3870.000000	32.114563 
3869.000000	32.088997 
3868.000000	32.052711 
3867.000000	32.021335 
3866.000000	32.011912 
3865.000000	32.027826 
3864.000000	32.061101 
3863.000000	32.102770 
3862.000000	32.150734 
3861.000000	32.203628 
3860.000000	32.252312 
3859.000000	32.282934 
3858.000000	32.283855 
3857.000000	32.249819 
3856.000000	32.185823 
3855.000000	32.115592 
3854.000000	32.075930 
3853.000000	32.066538 
3852.000000	32.038257 
3851.000000	31.988793 
3850.000000	31.975711 
3849.000000	32.024794 
3848.000000	32.107129 
3847.000000	32.179517 
3846.000000	32.218865 
3845.000000	32.226066 
3844.000000	32.208669 
3843.000000	32.168372 
3842.000000	32.107190 
3841.000000	32.035567 
3840.000000	31.970712 
3839.000000	31.927597 
3838.000000	31.908469 
3837.000000	31.904429 
3836.000000	31.908560 
3835.000000	31.923763 
3834.000000	31.955406 
3833.000000	32.000605 
3832.000000	32.049259 
3831.000000	32.089900 
3830.000000	32.114391 
3829.000000	32.122412 
3828.000000	32.118154 
3827.000000	32.101131 
3826.000000	32.067615 
3825.000000	32.019312 
3824.000000	31.965130 
3823.000000	31.913508 
3822.000000	31.868275 
3821.000000	31.832153 
3820.000000	31.807991 
3819.000000	31.804070 
3818.000000	31.831413 
3817.000000	31.883545 
3816.000000	31.933673 
3815.000000	31.954987 
3814.000000	31.943397 
3813.000000	31.916318 
3812.000000	31.886842 
3811.000000	31.851925 
3810.000000	31.810615 
3809.000000	31.778985 
3808.000000	31.777489 
3807.000000	31.805663 
3806.000000	31.836977 
3805.000000	31.849777 
3804.000000	31.849961 
3803.000000	31.846667 
3802.000000	31.835514 
3801.000000	31.815087 
3800.000000	31.799329 
3799.000000	31.814741 
3798.000000	31.877854 
3797.000000	31.966638 
3796.000000	32.032670 
3795.000000	32.046929 
3794.000000	32.025053 
3793.000000	32.005122 
3792.000000	32.007230 
3791.000000	32.017381 
3790.000000	32.008392 
3789.000000	31.972161 
3788.000000	31.928134 
3787.000000	31.903011 
3786.000000	31.905311 
3785.000000	31.918966 
3784.000000	31.922752 
3783.000000	31.913506 
3782.000000	31.906741 
3781.000000	31.917002 
3780.000000	31.941184 
3779.000000	31.962993 
3778.000000	31.973478 
3777.000000	31.980335 
3776.000000	31.992167 
3775.000000	32.002164 
3774.000000	31.993977 
3773.000000	31.962453 
3772.000000	31.924549 
3771.000000	31.907042 
3770.000000	31.923162 
3769.000000	31.960235 
3768.000000	31.995265 
3767.000000	32.016677 
3766.000000	32.020284 
3765.000000	31.999231 
3764.000000	31.951555 
3763.000000	31.891195 
3762.000000	31.841694 
3761.000000	31.816497 
3760.000000	31.810264 
3759.000000	31.807214 
3758.000000	31.794692 
3757.000000	31.770212 
3756.000000	31.734808 
3755.000000	31.685172 
3754.000000	31.612986 
3753.000000	31.512304 
3752.000000	31.394261 
3751.000000	31.292724 
3750.000000	31.240387 
3749.000000	31.237833 
3748.000000	31.265851 
3747.000000	31.310490 
3746.000000	31.355170 
3745.000000	31.384991 
3744.000000	31.400003 
3743.000000	31.399896 
3742.000000	31.395371 
3741.000000	31.412564 
3740.000000	31.445575 
3739.000000	31.461715 
3738.000000	31.449793 
3737.000000	31.434631 
3736.000000	31.447127 
3735.000000	31.496386 
3734.000000	31.575347 
3733.000000	31.668614 
3732.000000	31.744761 
3731.000000	31.767047 
3730.000000	31.726444 
3729.000000	31.651998 
3728.000000	31.582339 
3727.000000	31.537792 
3726.000000	31.514283 
3725.000000	31.498361 
3724.000000	31.488945 
3723.000000	31.498826 
3722.000000	31.533290 
3721.000000	31.575528 
3720.000000	31.601065 
3719.000000	31.600508 
3718.000000	31.583051 
3717.000000	31.563306 
3716.000000	31.548099 
3715.000000	31.533098 
3714.000000	31.508205 
3713.000000	31.467270 
3712.000000	31.414594 
3711.000000	31.366056 
3710.000000	31.335847 
3709.000000	31.324367 
3708.000000	31.315962 
3707.000000	31.298003 
3706.000000	31.276993 
3705.000000	31.271774 
3704.000000	31.298410 
3703.000000	31.349513 
3702.000000	31.393273 
3701.000000	31.391579 
3700.000000	31.335394 
3699.000000	31.254269 
3698.000000	31.191552 
3697.000000	31.168107 
3696.000000	31.169610 
3695.000000	31.161816 
3694.000000	31.120287 
3693.000000	31.048939 
3692.000000	30.971296 
3691.000000	30.914713 
3690.000000	30.893658 
3689.000000	30.903585 
3688.000000	30.919824 
3687.000000	30.922063 
3686.000000	30.915066 
3685.000000	30.912484 
3684.000000	30.911953 
3683.000000	30.900521 
3682.000000	30.878673 
3681.000000	30.860538 
3680.000000	30.857695 
3679.000000	30.862370 
3678.000000	30.849720 
3677.000000	30.788994 
3676.000000	30.672388 
3675.000000	30.532622 
3674.000000	30.417807 
3673.000000	30.358970 
3672.000000	30.360395 
3671.000000	30.400356 
3670.000000	30.446274 
3669.000000	30.477097 
3668.000000	30.490449 
3667.000000	30.493761 
3666.000000	30.489553 
3665.000000	30.473088 
3664.000000	30.441890 
3663.000000	30.402137 
3662.000000	30.363014 
3661.000000	30.328503 
3660.000000	30.294021 
3659.000000	30.250276 
3658.000000	30.189397 
3657.000000	30.111471 
3656.000000	30.028205 
3655.000000	29.954972 
3654.000000	29.903333 
3653.000000	29.873549 
3652.000000	29.840599 
3651.000000	29.758799 
3650.000000	29.605955 
3649.000000	29.429379 
3648.000000	29.317955 
3647.000000	29.310836 
3646.000000	29.368707 
3645.000000	29.429459 
3644.000000	29.455408 
3643.000000	29.438378 
3642.000000	29.386798 
3641.000000	29.317351 
3640.000000	29.249147 
3639.000000	29.196384 
3638.000000	29.160179 
3637.000000	29.128369 
3636.000000	29.086849 
3635.000000	29.030555 
3634.000000	28.965400 
3633.000000	28.901353 
3632.000000	28.846238 
3631.000000	28.799951 
3630.000000	28.753301 
3629.000000	28.697344 
3628.000000	28.631127 
3627.000000	28.562065 
3626.000000	28.505373 
3625.000000	28.469914 
3624.000000	28.445402 
3623.000000	28.418329 
3622.000000	28.389752 
3621.000000	28.365303 
3620.000000	28.334727 
3619.000000	28.273072 
3618.000000	28.168556 
3617.000000	28.040898 
3616.000000	27.922819 
3615.000000	27.829686 
3614.000000	27.753429 
3613.000000	27.678286 
3612.000000	27.597792 
3611.000000	27.515894 
3610.000000	27.435845 
3609.000000	27.355917 
3608.000000	27.275539 
3607.000000	27.203050 
3606.000000	27.151129 
3605.000000	27.122482 
3604.000000	27.104566 
3603.000000	27.077525 
3602.000000	27.029640 
3601.000000	26.964755 
3600.000000	26.900509 
3599.000000	26.854092 
3598.000000	26.828010 
3597.000000	26.807995 
3596.000000	26.772864 
3595.000000	26.709336 
3594.000000	26.620870 
3593.000000	26.522843 
3592.000000	26.428152 
3591.000000	26.342674 
3590.000000	26.265840 
3589.000000	26.194693 
3588.000000	26.124280 
3587.000000	26.051085 
3586.000000	25.978143 
3585.000000	25.917365 
3584.000000	25.881850 
3583.000000	25.872565 
3582.000000	25.871456 
3581.000000	25.850400 
3580.000000	25.796150 
3579.000000	25.724866 
3578.000000	25.669607 
3577.000000	25.651175 
3576.000000	25.660465 
3575.000000	25.668452 
3574.000000	25.647430 
3573.000000	25.587172 
3572.000000	25.495098 
3571.000000	25.391601 
3570.000000	25.299937 
3569.000000	25.235196 
3568.000000	25.194563 
3567.000000	25.161351 
3566.000000	25.122372 
3565.000000	25.079923 
3564.000000	25.042685 
3563.000000	25.016314 
3562.000000	25.003748 
3561.000000	25.004730 
3560.000000	25.009583 
3559.000000	24.999424 
3558.000000	24.961241 
3557.000000	24.903796 
3556.000000	24.851910 
3555.000000	24.822465 
3554.000000	24.808116 
3553.000000	24.787289 
3552.000000	24.748685 
3551.000000	24.703940 
3550.000000	24.675758 
3549.000000	24.676738 
3548.000000	24.698593 
3547.000000	24.718373 
3546.000000	24.716303 
3545.000000	24.690054 
3544.000000	24.650597 
3543.000000	24.607980 
3542.000000	24.567933 
3541.000000	24.538600 
3540.000000	24.529045 
3539.000000	24.536472 
3538.000000	24.540477 
3537.000000	24.519523 
3536.000000	24.475155 
3535.000000	24.434941 
3534.000000	24.426103 
3533.000000	24.448078 
3532.000000	24.472728 
3531.000000	24.470849 
3530.000000	24.439678 
3529.000000	24.406358 
3528.000000	24.401934 
3527.000000	24.432317 
3526.000000	24.475557 
3525.000000	24.503572 
3524.000000	24.500200 
3523.000000	24.465035 
3522.000000	24.413054 
3521.000000	24.372780 
3520.000000	24.372397 
3519.000000	24.415714 
3518.000000	24.473555 
3517.000000	24.507032 
3516.000000	24.501770 
3515.000000	24.475265 
3514.000000	24.454585 
3513.000000	24.454139 
3512.000000	24.472922 
3511.000000	24.502812 
3510.000000	24.532962 
3509.000000	24.552233 
3508.000000	24.555791 
3507.000000	24.549291 
3506.000000	24.543873 
3505.000000	24.547428 
3504.000000	24.560350 
3503.000000	24.576921 
3502.000000	24.589741 
3501.000000	24.594869 
3500.000000	24.595084 
3499.000000	24.598150 
3498.000000	24.609967 
3497.000000	24.627705 
3496.000000	24.638571 
3495.000000	24.626858 
3494.000000	24.586485 
3493.000000	24.530378 
3492.000000	24.485871 
3491.000000	24.475176 
3490.000000	24.498373 
3489.000000	24.536827 
3488.000000	24.574338 
3487.000000	24.610931 
3486.000000	24.652881 
3485.000000	24.694029 
3484.000000	24.715621 
3483.000000	24.706726 
3482.000000	24.680663 
3481.000000	24.665925 
3480.000000	24.678930 
3479.000000	24.709644 
3478.000000	24.734279 
3477.000000	24.737625 
3476.000000	24.720881 
3475.000000	24.693680 
3474.000000	24.667079 
3473.000000	24.653639 
3472.000000	24.664750 
3471.000000	24.701509 
3470.000000	24.750475 
3469.000000	24.793380 
3468.000000	24.820246 
3467.000000	24.830875 
3466.000000	24.827586 
3465.000000	24.812260 
3464.000000	24.789410 
3463.000000	24.767088 
3462.000000	24.754554 
3461.000000	24.761003 
3460.000000	24.792219 
3459.000000	24.842227 
3458.000000	24.891095 
3457.000000	24.919866 
3456.000000	24.928796 
3455.000000	24.934838 
3454.000000	24.951365 
3453.000000	24.977301 
3452.000000	25.005931 
3451.000000	25.032996 
3450.000000	25.052162 
3449.000000	25.053431 
3448.000000	25.036167 
3447.000000	25.017559 
3446.000000	25.016706 
3445.000000	25.033045 
3444.000000	25.050688 
3443.000000	25.061317 
3442.000000	25.071411 
3441.000000	25.087506 
3440.000000	25.107060 
3439.000000	25.128986 
3438.000000	25.162994 
3437.000000	25.218714 
3436.000000	25.287420 
3435.000000	25.342695 
3434.000000	25.360528 
3433.000000	25.335676 
3432.000000	25.281535 
3431.000000	25.220539 
3430.000000	25.175011 
3429.000000	25.159756 
3428.000000	25.176827 
3427.000000	25.217538 
3426.000000	25.271343 
3425.000000	25.330315 
3424.000000	25.383746 
3423.000000	25.415148 
3422.000000	25.413416 
3421.000000	25.386839 
3420.000000	25.357673 
3419.000000	25.340237 
3418.000000	25.331958 
3417.000000	25.329590 
3416.000000	25.345147 
3415.000000	25.395624 
3414.000000	25.479036 
3413.000000	25.568322 
3412.000000	25.630409 
3411.000000	25.648382 
3410.000000	25.627261 
3409.000000	25.586446 
3408.000000	25.550409 
3407.000000	25.540058 
3406.000000	25.564986 
3405.000000	25.620458 
3404.000000	25.690228 
3403.000000	25.751940 
3402.000000	25.784750 
3401.000000	25.781378 
3400.000000	25.757230 
3399.000000	25.743019 
3398.000000	25.761324 
3397.000000	25.807418 
3396.000000	25.853045 
3395.000000	25.869468 
3394.000000	25.849403 
3393.000000	25.810505 
3392.000000	25.779350 
3391.000000	25.770229 
3390.000000	25.778706 
3389.000000	25.795782 
3388.000000	25.825685 
3387.000000	25.884468 
3386.000000	25.978886 
3385.000000	26.088755 
3384.000000	26.174121 
3383.000000	26.202568 
3382.000000	26.172935 
3381.000000	26.116263 
3380.000000	26.074332 
3379.000000	26.073353 
3378.000000	26.113141 
3377.000000	26.176648 
3376.000000	26.246077 
3375.000000	26.310995 
3374.000000	26.367629 
3373.000000	26.416191 
3372.000000	26.455894 
3371.000000	26.477968 
3370.000000	26.468724 
3369.000000	26.428397 
3368.000000	26.384193 
3367.000000	26.372674 
3366.000000	26.406914 
3365.000000	26.468044 
3364.000000	26.528166 
3363.000000	26.570232 
3362.000000	26.585703 
3361.000000	26.570829 
3360.000000	26.536869 
3359.000000	26.512012 
3358.000000	26.516979 
3357.000000	26.541463 
3356.000000	26.556494 
3355.000000	26.548737 
3354.000000	26.532708 
3353.000000	26.530650 
3352.000000	26.552570 
3351.000000	26.596719 
3350.000000	26.656227 
3349.000000	26.718237 
3348.000000	26.765528 
3347.000000	26.789771 
3346.000000	26.802402 
3345.000000	26.825933 
3344.000000	26.872241 
3343.000000	26.929996 
3342.000000	26.974935 
3341.000000	26.994553 
3340.000000	27.003398 
3339.000000	27.031289 
3338.000000	27.092462 
3337.000000	27.167376 
3336.000000	27.219369 
3335.000000	27.229619 
3334.000000	27.211481 
3333.000000	27.192622 
3332.000000	27.190910 
3331.000000	27.207263 
3330.000000	27.231844 
3329.000000	27.251433 
3328.000000	27.257502 
3327.000000	27.254740 
3326.000000	27.258871 
3325.000000	27.280157 
3324.000000	27.311191 
3323.000000	27.336284 
3322.000000	27.350247 
3321.000000	27.361817 
3320.000000	27.381732 
3319.000000	27.415848 
3318.000000	27.468946 
3317.000000	27.543368 
3316.000000	27.628433 
3315.000000	27.700373 
3314.000000	27.741758 
3313.000000	27.757053 
3312.000000	27.761245 
3311.000000	27.757238 
3310.000000	27.735471 
3309.000000	27.696271 
3308.000000	27.661146 
3307.000000	27.655445 
3306.000000	27.684516 
3305.000000	27.731010 
3304.000000	27.771823 
3303.000000	27.794985 
3302.000000	27.805301 
3301.000000	27.818069 
3300.000000	27.844200 
3299.000000	27.878019 
3298.000000	27.903000 
3297.000000	27.912745 
3296.000000	27.921587 
3295.000000	27.948818 
3294.000000	27.996129 
3293.000000	28.046636 
3292.000000	28.083597 
3291.000000	28.104172 
3290.000000	28.116538 
3289.000000	28.130929 
3288.000000	28.154111 
3287.000000	28.185903 
3286.000000	28.218802 
3285.000000	28.244574 
3284.000000	28.262025 
3283.000000	28.276586 
3282.000000	28.296111 
3281.000000	28.332204 
3280.000000	28.399463 
3279.000000	28.499555 
3278.000000	28.603510 
3277.000000	28.663201 
3276.000000	28.651727 
3275.000000	28.589400 
3274.000000	28.523569 
3273.000000	28.486415 
3272.000000	28.477976 
3271.000000	28.485339 
3270.000000	28.507623 
3269.000000	28.557477 
3268.000000	28.640282 
3267.000000	28.735183 
3266.000000	28.801178 
3265.000000	28.808715 
3264.000000	28.767747 
3263.000000	28.720048 
3262.000000	28.701194 
3261.000000	28.713976 
3260.000000	28.739459 
3259.000000	28.764824 
3258.000000	28.792164 
3257.000000	28.824671 
3256.000000	28.855770 
3255.000000	28.876121 
3254.000000	28.886134 
3253.000000	28.895958 
3252.000000	28.912261 
3251.000000	28.928228 
3250.000000	28.931108 
3249.000000	28.920979 
3248.000000	28.916708 
3247.000000	28.937076 
3246.000000	28.979361 
3245.000000	29.026006 
3244.000000	29.071485 
3243.000000	29.128529 
3242.000000	29.201954 
3241.000000	29.270922 
3240.000000	29.310095 
3239.000000	29.320005 
3238.000000	29.321508 
3237.000000	29.323077 
3236.000000	29.309859 
3235.000000	29.269499 
3234.000000	29.216638 
3233.000000	29.184571 
3232.000000	29.198213 
3231.000000	29.258363 
3230.000000	29.344972 
3229.000000	29.429276 
3228.000000	29.487979 
3227.000000	29.514978 
3226.000000	29.522130 
3225.000000	29.527185 
3224.000000	29.540298 
3223.000000	29.560335 
3222.000000	29.579957 
3221.000000	29.592474 
3220.000000	29.597128 
3219.000000	29.599978 
3218.000000	29.607051 
3217.000000	29.615487 
3216.000000	29.615271 
3215.000000	29.602535 
3214.000000	29.588181 
3213.000000	29.589541 
3212.000000	29.615103 
3211.000000	29.660357 
3210.000000	29.715601 
3209.000000	29.772302 
3208.000000	29.822817 
3207.000000	29.860924 
3206.000000	29.886770 
3205.000000	29.908575 
3204.000000	29.935486 
3203.000000	29.968906 
3202.000000	30.002637 
3201.000000	30.030350 
3200.000000	30.050833 
3199.000000	30.067862 
3198.000000	30.088781 
3197.000000	30.122044 
3196.000000	30.169159 
3195.000000	30.215806 
3194.000000	30.237888 
3193.000000	30.225596 
3192.000000	30.200786 
3191.000000	30.201553 
3190.000000	30.245208 
3189.000000	30.311654 
3188.000000	30.367766 
3187.000000	30.402809 
3186.000000	30.432756 
3185.000000	30.473247 
3184.000000	30.519271 
3183.000000	30.555596 
3182.000000	30.579506 
3181.000000	30.604966 
3180.000000	30.645459 
3179.000000	30.698170 
3178.000000	30.745976 
3177.000000	30.772307 
3176.000000	30.773405 
3175.000000	30.758574 
3174.000000	30.740649 
3173.000000	30.726575 
3172.000000	30.717473 
3171.000000	30.717198 
3170.000000	30.736574 
3169.000000	30.783175 
3168.000000	30.846364 
3167.000000	30.899000 
3166.000000	30.919688 
3165.000000	30.912350 
3164.000000	30.901203 
3163.000000	30.908856 
3162.000000	30.942253 
3161.000000	30.994789 
3160.000000	31.052981 
3159.000000	31.100635 
3158.000000	31.125904 
3157.000000	31.130837 
3156.000000	31.131647 
3155.000000	31.146412 
3154.000000	31.183495 
3153.000000	31.239985 
3152.000000	31.303561 
3151.000000	31.354197 
3150.000000	31.375028 
3149.000000	31.370719 
3148.000000	31.369295 
3147.000000	31.395474 
3146.000000	31.443446 
3145.000000	31.483447 
3144.000000	31.493602 
3143.000000	31.478246 
3142.000000	31.458652 
3141.000000	31.457296 
3140.000000	31.490209 
3139.000000	31.559163 
3138.000000	31.642821 
3137.000000	31.705009 
3136.000000	31.723910 
3135.000000	31.712424 
3134.000000	31.703659 
3133.000000	31.716879 
3132.000000	31.741621 
3131.000000	31.754960 
3130.000000	31.749920 
3129.000000	31.744477 
3128.000000	31.764091 
3127.000000	31.817210 
3126.000000	31.888795 
3125.000000	31.956789 
3124.000000	32.009589 
3123.000000	32.044227 
3122.000000	32.055810 
3121.000000	32.041303 
3120.000000	32.013591 
3119.000000	31.999304 
3118.000000	32.016242 
3117.000000	32.059152 
3116.000000	32.111311 
3115.000000	32.162023 
3114.000000	32.206932 
3113.000000	32.239424 
3112.000000	32.252853 
3111.000000	32.250096 
3110.000000	32.243930 
3109.000000	32.247958 
3108.000000	32.269867 
3107.000000	32.309257 
3106.000000	32.356189 
3105.000000	32.395058 
3104.000000	32.417535 
3103.000000	32.431845 
3102.000000	32.454216 
3101.000000	32.491414 
3100.000000	32.535409 
3099.000000	32.572911 
3098.000000	32.594154 
3097.000000	32.594469 
3096.000000	32.576260 
3095.000000	32.552309 
3094.000000	32.541178 
3093.000000	32.554810 
3092.000000	32.590946 
3091.000000	32.636608 
3090.000000	32.676434 
3089.000000	32.700669 
3088.000000	32.711564 
3087.000000	32.722360 
3086.000000	32.745102 
3085.000000	32.778616 
3084.000000	32.812155 
3083.000000	32.840076 
3082.000000	32.866980 
3081.000000	32.897471 
3080.000000	32.926880 
3079.000000	32.945064 
3078.000000	32.946246 
3077.000000	32.934901 
3076.000000	32.926929 
3075.000000	32.944598 
3074.000000	33.000310 
3073.000000	33.078948 
3072.000000	33.142914 
3071.000000	33.163343 
3070.000000	33.145264 
3069.000000	33.117831 
3068.000000	33.104289 
3067.000000	33.109136 
3066.000000	33.130048 
3065.000000	33.167895 
3064.000000	33.219356 
3063.000000	33.269206 
3062.000000	33.300093 
3061.000000	33.309441 
3060.000000	33.311573 
3059.000000	33.323322 
3058.000000	33.350831 
3057.000000	33.389207 
3056.000000	33.430043 
3055.000000	33.466845 
3054.000000	33.496070 
3053.000000	33.517384 
3052.000000	33.534247 
3051.000000	33.552327 
3050.000000	33.575182 
3049.000000	33.601537 
3048.000000	33.628684 
3047.000000	33.658098 
3046.000000	33.693465 
3045.000000	33.731028 
3044.000000	33.757239 
3043.000000	33.763219 
3042.000000	33.759723 
3041.000000	33.768157 
3040.000000	33.794255 
3039.000000	33.819983 
3038.000000	33.827379 
3037.000000	33.822050 
3036.000000	33.823634 
3035.000000	33.839539 
3034.000000	33.860567 
3033.000000	33.879359 
3032.000000	33.897477 
3031.000000	33.911514 
3030.000000	33.908743 
3029.000000	33.887398 
3028.000000	33.870718 
3027.000000	33.887717 
3026.000000	33.943159 
3025.000000	34.014935 
3024.000000	34.078553 
3023.000000	34.126209 
3022.000000	34.163522 
3021.000000	34.196631 
3020.000000	34.224475 
3019.000000	34.239841 
3018.000000	34.238733 
3017.000000	34.231032 
3016.000000	34.236247 
3015.000000	34.262382 
3014.000000	34.294470 
3013.000000	34.312673 
3012.000000	34.316962 
3011.000000	34.322998 
3010.000000	34.337447 
3009.000000	34.352681 
3008.000000	34.365596 
3007.000000	34.383870 
3006.000000	34.406248 
3005.000000	34.411528 
3004.000000	34.381475 
3003.000000	34.328872 
3002.000000	34.291355 
3001.000000	34.298967 
3000.000000	34.353948 
2999.000000	34.436453 
2998.000000	34.519361 
2997.000000	34.579016 
2996.000000	34.603403 
2995.000000	34.596818 
2994.000000	34.574953 
2993.000000	34.553840 
2992.000000	34.542365 
2991.000000	34.541051 
2990.000000	34.544264 
2989.000000	34.546625 
2988.000000	34.551428 
2987.000000	34.569318 
2986.000000	34.603156 
2985.000000	34.637452 
2984.000000	34.650725 
2983.000000	34.638463 
2982.000000	34.617167 
2981.000000	34.605313 
2980.000000	34.606756 
2979.000000	34.613928 
2978.000000	34.618882 
2977.000000	34.616310 
2976.000000	34.602888 
2975.000000	34.582488 
2974.000000	34.570166 
2973.000000	34.581596 
2972.000000	34.614469 
2971.000000	34.645007 
2970.000000	34.648308 
2969.000000	34.622148 
2968.000000	34.588774 
2967.000000	34.573963 
2966.000000	34.586361 
2965.000000	34.615480 
2964.000000	34.643583 
2963.000000	34.655769 
2962.000000	34.642990 
2961.000000	34.604158 
2960.000000	34.550736 
2959.000000	34.507373 
2958.000000	34.501765 
2957.000000	34.546714 
2956.000000	34.627967 
2955.000000	34.710501 
2954.000000	34.762369 
2953.000000	34.776722 
2952.000000	34.771170 
2951.000000	34.766519 
2950.000000	34.769421 
2949.000000	34.775938 
2948.000000	34.784399 
2947.000000	34.797853 
2946.000000	34.816745 
2945.000000	34.835955 
2944.000000	34.848640 
2943.000000	34.848347 
2942.000000	34.830127 
2941.000000	34.796956 
2940.000000	34.764129 
2939.000000	34.748654 
2938.000000	34.752100 
2937.000000	34.760562 
2936.000000	34.762724 
2935.000000	34.760072 
2934.000000	34.756423 
2933.000000	34.747221 
2932.000000	34.726214 
2931.000000	34.696199 
2930.000000	34.664995 
2929.000000	34.634688 
2928.000000	34.602755 
2927.000000	34.572328 
2926.000000	34.554124 
2925.000000	34.557377 
2924.000000	34.582884 
2923.000000	34.625553 
2922.000000	34.680939 
2921.000000	34.747681 
2920.000000	34.822308 
2919.000000	34.890657 
2918.000000	34.929754 
2917.000000	34.928930 
2916.000000	34.910647 
2915.000000	34.918626 
2914.000000	34.976189 
2913.000000	35.062239 
2912.000000	35.135111 
2911.000000	35.174261 
2910.000000	35.190590 
2909.000000	35.204470 
2908.000000	35.228667 
2907.000000	35.270923 
2906.000000	35.335718 
2905.000000	35.415609 
2904.000000	35.489702 
2903.000000	35.538306 
2902.000000	35.556690 
2901.000000	35.552802 
2900.000000	35.538224 
2899.000000	35.524956 
2898.000000	35.524406 
2897.000000	35.541469 
2896.000000	35.571337 
2895.000000	35.605955 
2894.000000	35.641171 
2893.000000	35.674819 
2892.000000	35.702556 
2891.000000	35.721529 
2890.000000	35.735501 
2889.000000	35.750143 
2888.000000	35.764591 
2887.000000	35.773962 
2886.000000	35.780160 
2885.000000	35.793100 
2884.000000	35.818061 
2883.000000	35.847061 
2882.000000	35.867372 
2881.000000	35.875990 
2880.000000	35.880729 
2879.000000	35.888028 
2878.000000	35.895484 
2877.000000	35.898822 
2876.000000	35.901918 
2875.000000	35.914021 
2874.000000	35.936649 
2873.000000	35.958304 
2872.000000	35.966166 
2871.000000	35.961142 
2870.000000	35.956920 
2869.000000	35.964066 
2868.000000	35.979546 
2867.000000	35.994613 
2866.000000	36.008576 
2865.000000	36.028202 
2864.000000	36.053210 
2863.000000	36.068579 
2862.000000	36.056660 
2861.000000	36.016376 
2860.000000	35.967079 
2859.000000	35.932324 
2858.000000	35.920659 
2857.000000	35.921808 
2856.000000	35.919604 
2855.000000	35.908262 
2854.000000	35.897490 
2853.000000	35.903578 
2852.000000	35.935644 
2851.000000	35.989340 
2850.000000	36.052241 
2849.000000	36.113619 
2848.000000	36.169712 
2847.000000	36.222319 
2846.000000	36.274512 
2845.000000	36.325986 
2844.000000	36.369954 
2843.000000	36.396225 
2842.000000	36.401398 
2841.000000	36.396947 
2840.000000	36.403301 
2839.000000	36.432791 
2838.000000	36.478852 
2837.000000	36.522090 
2836.000000	36.546362 
2835.000000	36.550368 
2834.000000	36.548127 
2833.000000	36.559369 
2832.000000	36.594480 
2831.000000	36.644131 
2830.000000	36.685103 
2829.000000	36.701074 
2828.000000	36.698181 
2827.000000	36.698263 
2826.000000	36.716962 
2825.000000	36.749902 
2824.000000	36.779861 
2823.000000	36.795727 
2822.000000	36.804146 
2821.000000	36.821943 
2820.000000	36.855996 
2819.000000	36.892272 
2818.000000	36.909207 
2817.000000	36.901790 
2816.000000	36.885719 
2815.000000	36.875516 
2814.000000	36.867524 
2813.000000	36.852885 
2812.000000	36.839920 
2811.000000	36.849418 
2810.000000	36.886841 
2809.000000	36.931486 
2808.000000	36.958896 
2807.000000	36.965553 
2806.000000	36.965895 
2805.000000	36.972840 
2804.000000	36.989402 
2803.000000	37.013616 
2802.000000	37.040281 
2801.000000	37.058134 
2800.000000	37.055927 
2799.000000	37.036526 
2798.000000	37.020035 
2797.000000	37.027554 
2796.000000	37.062230 
2795.000000	37.107359 
2794.000000	37.140669 
2793.000000	37.149147 
2792.000000	37.134369 
2791.000000	37.109444 
2790.000000	37.091872 
2789.000000	37.094603 
2788.000000	37.118811 
2787.000000	37.153212 
2786.000000	37.180845 
2785.000000	37.188346 
2784.000000	37.172815 
2783.000000	37.144284 
2782.000000	37.122490 
2781.000000	37.126200 
2780.000000	37.158721 
2779.000000	37.202293 
2778.000000	37.230776 
2777.000000	37.232530 
2776.000000	37.221358 
2775.000000	37.223079 
2774.000000	37.249785 
2773.000000	37.287273 
2772.000000	37.308077 
2771.000000	37.297349 
2770.000000	37.266211 
2769.000000	37.240427 
2768.000000	37.237193 
2767.000000	37.253650 
2766.000000	37.275303 
2765.000000	37.289809 
2764.000000	37.291762 
2763.000000	37.281492 
2762.000000	37.266574 
2761.000000	37.261124 
2760.000000	37.274184 
2759.000000	37.297705 
2758.000000	37.313444 
2757.000000	37.314352 
2756.000000	37.312415 
2755.000000	37.322114 
2754.000000	37.342762 
2753.000000	37.362470 
2752.000000	37.374700 
2751.000000	37.384974 
2750.000000	37.403537 
2749.000000	37.435798 
2748.000000	37.477082 
2747.000000	37.512478 
2746.000000	37.525079 
2745.000000	37.509903 
2744.000000	37.479143 
2743.000000	37.450698 
2742.000000	37.434064 
2741.000000	37.429458 
2740.000000	37.434627 
2739.000000	37.446423 
2738.000000	37.460075 
2737.000000	37.474023 
2736.000000	37.492066 
2735.000000	37.513428 
2734.000000	37.524850 
2733.000000	37.512903 
2732.000000	37.483219 
2731.000000	37.457542 
2730.000000	37.451421 
2729.000000	37.464046 
2728.000000	37.489430 
2727.000000	37.524717 
2726.000000	37.563261 
2725.000000	37.591668 
2724.000000	37.602148 
2723.000000	37.600074 
2722.000000	37.592416 
2721.000000	37.577650 
2720.000000	37.556277 
2719.000000	37.542212 
2718.000000	37.549001 
2717.000000	37.567611 
2716.000000	37.572311 
2715.000000	37.550990 
2714.000000	37.518338 
2713.000000	37.495756 
2712.000000	37.489558 
2711.000000	37.494649 
2710.000000	37.508425 
2709.000000	37.530410 
2708.000000	37.554385 
2707.000000	37.572616 
2706.000000	37.586508 
2705.000000	37.603591 
2704.000000	37.624147 
2703.000000	37.640213 
2702.000000	37.649357 
2701.000000	37.660254 
2700.000000	37.680510 
2699.000000	37.705894 
2698.000000	37.726053 
2697.000000	37.734472 
2696.000000	37.728555 
2695.000000	37.707792 
2694.000000	37.679542 
2693.000000	37.660362 
2692.000000	37.661398 
2691.000000	37.675131 
2690.000000	37.685722 
2689.000000	37.690531 
2688.000000	37.701169 
2687.000000	37.723559 
2686.000000	37.748650 
2685.000000	37.766202 
2684.000000	37.777288 
2683.000000	37.787029 
2682.000000	37.792508 
2681.000000	37.785288 
2680.000000	37.762456 
2679.000000	37.730431 
2678.000000	37.700730 
2677.000000	37.684446 
2676.000000	37.686119 
2675.000000	37.699721 
2674.000000	37.714609 
2673.000000	37.727558 
2672.000000	37.743820 
2671.000000	37.764563 
2670.000000	37.780912 
2669.000000	37.785030 
2668.000000	37.780853 
2667.000000	37.778918 
2666.000000	37.786445 
2665.000000	37.806704 
2664.000000	37.839931 
2663.000000	37.877036 
2662.000000	37.899044 
2661.000000	37.893068 
2660.000000	37.866710 
2659.000000	37.839789 
2658.000000	37.824470 
2657.000000	37.819311 
2656.000000	37.818243 
2655.000000	37.817199 
2654.000000	37.814690 
2653.000000	37.813362 
2652.000000	37.818884 
2651.000000	37.830959 
2650.000000	37.838950 
2649.000000	37.834257 
2648.000000	37.823752 
2647.000000	37.822380 
2646.000000	37.834792 
2645.000000	37.853053 
2644.000000	37.870206 
2643.000000	37.885703 
2642.000000	37.897310 
2641.000000	37.897936 
2640.000000	37.884311 
2639.000000	37.863490 
2638.000000	37.849442 
2637.000000	37.856301 
2636.000000	37.890232 
2635.000000	37.938681 
2634.000000	37.970102 
2633.000000	37.957155 
2632.000000	37.904731 
2631.000000	37.847852 
2630.000000	37.819764 
2629.000000	37.828010 
2628.000000	37.859609 
2627.000000	37.897271 
2626.000000	37.926293 
2625.000000	37.937152 
2624.000000	37.931205 
2623.000000	37.919921 
2622.000000	37.912872 
2621.000000	37.910211 
2620.000000	37.910279 
2619.000000	37.918057 
2618.000000	37.939118 
2617.000000	37.968455 
2616.000000	37.992237 
2615.000000	38.000806 
2614.000000	37.996288 
2613.000000	37.987956 
2612.000000	37.983050 
2611.000000	37.981847 
2610.000000	37.979299 
2609.000000	37.970783 
2608.000000	37.956932 
2607.000000	37.943206 
2606.000000	37.935429 
2605.000000	37.936074 
2604.000000	37.943217 
2603.000000	37.951527 
2602.000000	37.955789 
2601.000000	37.955010 
2600.000000	37.951256 
2599.000000	37.943702 
2598.000000	37.928994 
2597.000000	37.911563 
2596.000000	37.907989 
2595.000000	37.932545 
2594.000000	37.979217 
2593.000000	38.024498 
2592.000000	38.047628 
2591.000000	38.043067 
2590.000000	38.016403 
2589.000000	37.978320 
2588.000000	37.944200 
2587.000000	37.930004 
2586.000000	37.942013 
2585.000000	37.972971 
2584.000000	38.009505 
2583.000000	38.039313 
2582.000000	38.051717 
2581.000000	38.040107 
2580.000000	38.009648 
2579.000000	37.978161 
2578.000000	37.963209 
2577.000000	37.967895 
2576.000000	37.980381 
2575.000000	37.986181 
2574.000000	37.981154 
2573.000000	37.974711 
2572.000000	37.979645 
2571.000000	37.996656 
2570.000000	38.011735 
2569.000000	38.013145 
2568.000000	38.007594 
2567.000000	38.012022 
2566.000000	38.030785 
2565.000000	38.050344 
2564.000000	38.058071 
2563.000000	38.056748 
2562.000000	38.055905 
2561.000000	38.057478 
2560.000000	38.057513 
2559.000000	38.056179 
2558.000000	38.057153 
2557.000000	38.059520 
2556.000000	38.058799 
2555.000000	38.056591 
2554.000000	38.062081 
2553.000000	38.080669 
2552.000000	38.105170 
2551.000000	38.122314 
2550.000000	38.126627 
2549.000000	38.124076 
2548.000000	38.121370 
2547.000000	38.115617 
2546.000000	38.098505 
2545.000000	38.069603 
2544.000000	38.040821 
2543.000000	38.026178 
2542.000000	38.030031 
2541.000000	38.045725 
2540.000000	38.061354 
2539.000000	38.065455 
2538.000000	38.053266 
2537.000000	38.032493 
2536.000000	38.018921 
2535.000000	38.020727 
2534.000000	38.029846 
2533.000000	38.033922 
2532.000000	38.033312 
2531.000000	38.038592 
2530.000000	38.052058 
2529.000000	38.059805 
2528.000000	38.045278 
2527.000000	38.007211 
2526.000000	37.962569 
2525.000000	37.933699 
2524.000000	37.931931 
2523.000000	37.950727 
2522.000000	37.974059 
2521.000000	37.991377 
2520.000000	38.002311 
2519.000000	38.008336 
2518.000000	38.007993 
2517.000000	38.003874 
2516.000000	38.005297 
2515.000000	38.015722 
2514.000000	38.023811 
2513.000000	38.016692 
2512.000000	37.998054 
2511.000000	37.983540 
2510.000000	37.981778 
2509.000000	37.989556 
2508.000000	38.000932 
2507.000000	38.008853 
2506.000000	38.001754 
2505.000000	37.975032 
2504.000000	37.946913 
2503.000000	37.946492 
2502.000000	37.980741 
2501.000000	38.026669 
2500.000000	38.061683 
2499.000000	38.087207 
2498.000000	38.112573 
2497.000000	38.128815 
2496.000000	38.114094 
2495.000000	38.061034 
2494.000000	37.987739 
2493.000000	37.924675 
2492.000000	37.898404 
2491.000000	37.921263 
2490.000000	37.982538 
2489.000000	38.048756 
2488.000000	38.085181 
2487.000000	38.084494 
2486.000000	38.070330 
2485.000000	38.069209 
2484.000000	38.082996 
2483.000000	38.092007 
2482.000000	38.081272 
2481.000000	38.057691 
2480.000000	38.040733 
2479.000000	38.041464 
2478.000000	38.054905 
2477.000000	38.070104 
2476.000000	38.079975 
2475.000000	38.079289 
2474.000000	38.061924 
2473.000000	38.029318 
2472.000000	37.998371 
2471.000000	37.990312 
2470.000000	38.009020 
2469.000000	38.036852 
2468.000000	38.053844 
2467.000000	38.054841 
2466.000000	38.045943 
2465.000000	38.032646 
2464.000000	38.018338 
2463.000000	38.009174 
2462.000000	38.011091 
2461.000000	38.020546 
2460.000000	38.023369 
2459.000000	38.006716 
2458.000000	37.973096 
2457.000000	37.942105 
2456.000000	37.935834 
2455.000000	37.958982 
2454.000000	37.992987 
2453.000000	38.012158 
2452.000000	38.006143 
2451.000000	37.984870 
2450.000000	37.963511 
2449.000000	37.948543 
2448.000000	37.939354 
2447.000000	37.936178 
2446.000000	37.939887 
2445.000000	37.945766 
2444.000000	37.943500 
2443.000000	37.926324 
2442.000000	37.899356 
2441.000000	37.876862 
2440.000000	37.869776 
2439.000000	37.876006 
2438.000000	37.884392 
2437.000000	37.887472 
2436.000000	37.886811 
2435.000000	37.885193 
2434.000000	37.879615 
2433.000000	37.867254 
2432.000000	37.854465 
2431.000000	37.852189 
2430.000000	37.862366 
2429.000000	37.875009 
2428.000000	37.879916 
2427.000000	37.876356 
2426.000000	37.869736 
2425.000000	37.863594 
2424.000000	37.857861 
2423.000000	37.851782 
2422.000000	37.844728 
2421.000000	37.834376 
2420.000000	37.816536 
2419.000000	37.788858 
2418.000000	37.755915 
2417.000000	37.729113 
2416.000000	37.717261 
2415.000000	37.715355 
2414.000000	37.706678 
2413.000000	37.680105 
2412.000000	37.643528 
2411.000000	37.616712 
2410.000000	37.612095 
2409.000000	37.624822 
2408.000000	37.638630 
2407.000000	37.637795 
2406.000000	37.616871 
2405.000000	37.585503 
2404.000000	37.563681 
2403.000000	37.566463 
2402.000000	37.590860 
2401.000000	37.618613 
2400.000000	37.630560 
2399.000000	37.617312 
2398.000000	37.581369 
2397.000000	37.535697 
2396.000000	37.498577 
2395.000000	37.481611 
2394.000000	37.478906 
2393.000000	37.471567 
2392.000000	37.444632 
2391.000000	37.398207 
2390.000000	37.342384 
2389.000000	37.283942 
2388.000000	37.219764 
2387.000000	37.141811 
2386.000000	37.046715 
2385.000000	36.938941 
2384.000000	36.824011 
2383.000000	36.701623 
2382.000000	36.571812 
2381.000000	36.449246 
2380.000000	36.363460 
2379.000000	36.338470 
2378.000000	36.372125 
2377.000000	36.440765 
2376.000000	36.519403 
2375.000000	36.580157 
2374.000000	36.583304 
2373.000000	36.489424 
2372.000000	36.296730 
2371.000000	36.059269 
2370.000000	35.845474 
2369.000000	35.679084 
2368.000000	35.526148 
2367.000000	35.337721 
2366.000000	35.112313 
2365.000000	34.939073 
2364.000000	34.958192 
2363.000000	35.181982 
2362.000000	35.405033 
2361.000000	35.443495 
2360.000000	35.309001 
2359.000000	35.132692 
2358.000000	35.011203 
2357.000000	34.920569 
2356.000000	34.870175 
2355.000000	34.875791 
2354.000000	34.870855 
2353.000000	34.778260 
2352.000000	34.612982 
2351.000000	34.533435 
2350.000000	34.559692 
2349.000000	34.550302 
2348.000000	34.390778 
2347.000000	34.093797 
2346.000000	33.831545 
2345.000000	33.682756 
2344.000000	33.644170 
2343.000000	33.653513 
2342.000000	33.644447 
2341.000000	33.633572 
2340.000000	33.597362 
2339.000000	33.574626 
2338.000000	33.609683 
2337.000000	33.750501 
2336.000000	33.985673 
2335.000000	34.242307 
2334.000000	34.395458 
2333.000000	34.362668 
2332.000000	34.166107 
2331.000000	33.968850 
2330.000000	33.895294 
2329.000000	33.957133 
2328.000000	34.118517 
2327.000000	34.271375 
2326.000000	34.399690 
2325.000000	34.455535 
2324.000000	34.488107 
2323.000000	34.517507 
2322.000000	34.538974 
2321.000000	34.556469 
2320.000000	34.567795 
2319.000000	34.606834 
2318.000000	34.646561 
2317.000000	34.671875 
2316.000000	34.670769 
2315.000000	34.653406 
2314.000000	34.614593 
2313.000000	34.539182 
2312.000000	34.454123 
2311.000000	34.391706 
2310.000000	34.377845 
2309.000000	34.381447 
2308.000000	34.398685 
2307.000000	34.428576 
2306.000000	34.483473 
2305.000000	34.534881 
2304.000000	34.568235 
2303.000000	34.582212 
2302.000000	34.590197 
2301.000000	34.590233 
2300.000000	34.586789 
2299.000000	34.587760 
2298.000000	34.603533 
2297.000000	34.617540 
2296.000000	34.623585 
2295.000000	34.625723 
2294.000000	34.646272 
2293.000000	34.674246 
2292.000000	34.690427 
2291.000000	34.677987 
2290.000000	34.648475 
2289.000000	34.613639 
2288.000000	34.582701 
2287.000000	34.560590 
2286.000000	34.552698 
2285.000000	34.557069 
2284.000000	34.565324 
2283.000000	34.573431 
2282.000000	34.581915 
2281.000000	34.590915 
2280.000000	34.595215 
2279.000000	34.596155 
2278.000000	34.600610 
2277.000000	34.613821 
2276.000000	34.627218 
2275.000000	34.629133 
2274.000000	34.616312 
2273.000000	34.594035 
2272.000000	34.569132 
2271.000000	34.546152 
2270.000000	34.533339 
2269.000000	34.537992 
2268.000000	34.555428 
2267.000000	34.566116 
2266.000000	34.553581 
2265.000000	34.525581 
2264.000000	34.509444 
2263.000000	34.519522 
2262.000000	34.541425 
2261.000000	34.548372 
2260.000000	34.533978 
2259.000000	34.513821 
2258.000000	34.499943 
2257.000000	34.489098 
2256.000000	34.472327 
2255.000000	34.451276 
2254.000000	34.431981 
2253.000000	34.418252 
2252.000000	34.411188 
2251.000000	34.411177 
2250.000000	34.412299 
2249.000000	34.399556 
2248.000000	34.363364 
2247.000000	34.313284 
2246.000000	34.275190 
2245.000000	34.268706 
2244.000000	34.289848 
2243.000000	34.311586 
2242.000000	34.305852 
2241.000000	34.269438 
2240.000000	34.230450 
2239.000000	34.222557 
2238.000000	34.250547 
2237.000000	34.285685 
2236.000000	34.296810 
2235.000000	34.279906 
2234.000000	34.253766 
2233.000000	34.234622 
2232.000000	34.222225 
2231.000000	34.208192 
2230.000000	34.189575 
2229.000000	34.172372 
2228.000000	34.163866 
2227.000000	34.163415 
2226.000000	34.161533 
2225.000000	34.149260 
2224.000000	34.126581 
2223.000000	34.098731 
2222.000000	34.067393 
2221.000000	34.032270 
2220.000000	34.000579 
2219.000000	33.985551 
2218.000000	33.991909 
2217.000000	34.008656 
2216.000000	34.020222 
2215.000000	34.019464 
2214.000000	34.006122 
2213.000000	33.979210 
2212.000000	33.938965 
2211.000000	33.893720 
2210.000000	33.857224 
2209.000000	33.837317 
2208.000000	33.829990 
2207.000000	33.825351 
2206.000000	33.818135 
2205.000000	33.812573 
2204.000000	33.817303 
2203.000000	33.834529 
2202.000000	33.854332 
2201.000000	33.861326 
2200.000000	33.846498 
2199.000000	33.810532 
2198.000000	33.757664 
2197.000000	33.692090 
2196.000000	33.621686 
2195.000000	33.560601 
2194.000000	33.524394 
2193.000000	33.521254 
2192.000000	33.544760 
2191.000000	33.572463 
2190.000000	33.576170 
2189.000000	33.542871 
2188.000000	33.488104 
2187.000000	33.443085 
2186.000000	33.426281 
2185.000000	33.431328 
2184.000000	33.441954 
2183.000000	33.449943 
2182.000000	33.454294 
2181.000000	33.451026 
2180.000000	33.433447 
2179.000000	33.401174 
2178.000000	33.362022 
2177.000000	33.323873 
2176.000000	33.288473 
2175.000000	33.254470 
2174.000000	33.223637 
2173.000000	33.201093 
2172.000000	33.189036 
2171.000000	33.182488 
2170.000000	33.174109 
2169.000000	33.163204 
2168.000000	33.155794 
2167.000000	33.153185 
2166.000000	33.144973 
2165.000000	33.119833 
2164.000000	33.082253 
2163.000000	33.051898 
2162.000000	33.044179 
2161.000000	33.054878 
2160.000000	33.065020 
2159.000000	33.057943 
2158.000000	33.031036 
2157.000000	32.994673 
2156.000000	32.962058 
2155.000000	32.938110 
2154.000000	32.916196 
2153.000000	32.886101 
2152.000000	32.845787 
2151.000000	32.805454 
2150.000000	32.780408 
2149.000000	32.778377 
2148.000000	32.790466 
2147.000000	32.794744 
2146.000000	32.773153 
2145.000000	32.726912 
2144.000000	32.673050 
2143.000000	32.627029 
2142.000000	32.594608 
2141.000000	32.578939 
2140.000000	32.583299 
2139.000000	32.601426 
2138.000000	32.615661 
2137.000000	32.613913 
2136.000000	32.602009 
2135.000000	32.591572 
2134.000000	32.583514 
2133.000000	32.572796 
2132.000000	32.560569 
2131.000000	32.548159 
2130.000000	32.525562 
2129.000000	32.482532 
2128.000000	32.429671 
2127.000000	32.392896 
2126.000000	32.384898 
2125.000000	32.394063 
2124.000000	32.402419 
2123.000000	32.401423 
2122.000000	32.387387 
2121.000000	32.355841 
2120.000000	32.309130 
2119.000000	32.261520 
2118.000000	32.228921 
2117.000000	32.216300 
2116.000000	32.216801 
2115.000000	32.217932 
2114.000000	32.208072 
2113.000000	32.184162 
2112.000000	32.155140 
2111.000000	32.132402 
2110.000000	32.117188 
2109.000000	32.103978 
2108.000000	32.094188 
2107.000000	32.095420 
2106.000000	32.105192 
2105.000000	32.106009 
2104.000000	32.081800 
2103.000000	32.033223 
2102.000000	31.974527 
2101.000000	31.922018 
2100.000000	31.886261 
2099.000000	31.866618 
2098.000000	31.850476 
2097.000000	31.824530 
2096.000000	31.788638 
2095.000000	31.752597 
2094.000000	31.721010 
2093.000000	31.691625 
2092.000000	31.667275 
2091.000000	31.655371 
2090.000000	31.652117 
2089.000000	31.640687 
2088.000000	31.611730 
2087.000000	31.574367 
2086.000000	31.540475 
2085.000000	31.509919 
2084.000000	31.479035 
2083.000000	31.452279 
2082.000000	31.433546 
2081.000000	31.412516 
2080.000000	31.371799 
2079.000000	31.305977 
2078.000000	31.226973 
2077.000000	31.153759 
2076.000000	31.101643 
2075.000000	31.075942 
2074.000000	31.067829 
2073.000000	31.058727 
2072.000000	31.034921 
2071.000000	30.996236 
2070.000000	30.947920 
2069.000000	30.890975 
2068.000000	30.827231 
2067.000000	30.767932 
2066.000000	30.727078 
2065.000000	30.705246 
2064.000000	30.685054 
2063.000000	30.644367 
2062.000000	30.573464 
2061.000000	30.483805 
2060.000000	30.403785 
2059.000000	30.358580 
2058.000000	30.346413 
2057.000000	30.338331 
2056.000000	30.307317 
2055.000000	30.253901 
2054.000000	30.197310 
2053.000000	30.147695 
2052.000000	30.097924 
2051.000000	30.040215 
2050.000000	29.977438 
2049.000000	29.913387 
2048.000000	29.841786 
2047.000000	29.753569 
2046.000000	29.651885 
2045.000000	29.552557 
2044.000000	29.468705 
2043.000000	29.399069 
2042.000000	29.333420 
2041.000000	29.266025 
2040.000000	29.199200 
2039.000000	29.134150 
2038.000000	29.064782 
2037.000000	28.985160 
2036.000000	28.899461 
2035.000000	28.818159 
2034.000000	28.744891 
2033.000000	28.673636 
2032.000000	28.600067 
2031.000000	28.528641 
2030.000000	28.464199 
2029.000000	28.402088 
2028.000000	28.332826 
2027.000000	28.254979 
2026.000000	28.177658 
2025.000000	28.109497 
2024.000000	28.047792 
2023.000000	27.978908 
2022.000000	27.889061 
2021.000000	27.776715 
2020.000000	27.657118 
2019.000000	27.553120 
2018.000000	27.478038 
2017.000000	27.425592 
2016.000000	27.376580 
2015.000000	27.315240 
2014.000000	27.238632 
2013.000000	27.153828 
2012.000000	27.071173 
2011.000000	26.998784 
2010.000000	26.937279 
2009.000000	26.877070 
2008.000000	26.804000 
2007.000000	26.712356 
2006.000000	26.613178 
2005.000000	26.527795 
2004.000000	26.470328 
2003.000000	26.433730 
2002.000000	26.392225 
2001.000000	26.319085 
2000.000000	26.207574 
1999.000000	26.077843 
1998.000000	25.961894 
1997.000000	25.877290 
1996.000000	25.813310 
1995.000000	25.745848 
1994.000000	25.665870 
1993.000000	25.589394 
1992.000000	25.536906 
1991.000000	25.506285 
1990.000000	25.474881 
1989.000000	25.426328 
1988.000000	25.362957 
1987.000000	25.293127 
1986.000000	25.218615 
1985.000000	25.138448 
1984.000000	25.057309 
1983.000000	24.983006 
1982.000000	24.918770 
1981.000000	24.862397 
1980.000000	24.810617 
1979.000000	24.760118 
1978.000000	24.707381 
1977.000000	24.651784 
1976.000000	24.595819 
1975.000000	24.538743 
1974.000000	24.473475 
1973.000000	24.395569 
1972.000000	24.312847 
1971.000000	24.240153 
1970.000000	24.184841 
1969.000000	24.141318 
1968.000000	24.098048 
1967.000000	24.046007 
1966.000000	23.983373 
1965.000000	23.917738 
1964.000000	23.862272 
1963.000000	23.823751 
1962.000000	23.794201 
1961.000000	23.759543 
1960.000000	23.716159 
1959.000000	23.672345 
1958.000000	23.633920 
1957.000000	23.597083 
1956.000000	23.557009 
1955.000000	23.514653 
1954.000000	23.471375 
1953.000000	23.425283 
1952.000000	23.377477 
1951.000000	23.334626 
1950.000000	23.299189 
1949.000000	23.262879 
1948.000000	23.216830 
1947.000000	23.163485 
1946.000000	23.111795 
1945.000000	23.064374 
1944.000000	23.017330 
1943.000000	22.971620 
1942.000000	22.934787 
1941.000000	22.907704 
1940.000000	22.880022 
1939.000000	22.843438 
1938.000000	22.800523 
1937.000000	22.758803 
1936.000000	22.721902 
1935.000000	22.688909 
1934.000000	22.659199 
1933.000000	22.633479 
1932.000000	22.610663 
1931.000000	22.587809 
1930.000000	22.562984 
1929.000000	22.534733 
1928.000000	22.499155 
1927.000000	22.450287 
1926.000000	22.387655 
1925.000000	22.321139 
1924.000000	22.266280 
1923.000000	22.234355 
1922.000000	22.224464 
1921.000000	22.225294 
1920.000000	22.223133 
1919.000000	22.206404 
1918.000000	22.170156 
1917.000000	22.122643 
1916.000000	22.079466 
1915.000000	22.048762 
1914.000000	22.026297 
1913.000000	22.002672 
1912.000000	21.972035 
1911.000000	21.933003 
1910.000000	21.884251 
1909.000000	21.826875 
1908.000000	21.771636 
1907.000000	21.734313 
1906.000000	21.719779 
1905.000000	21.712666 
1904.000000	21.689953 
1903.000000	21.645519 
1902.000000	21.596940 
1901.000000	21.565004 
1900.000000	21.549488 
1899.000000	21.531455 
1898.000000	21.498914 
1897.000000	21.460981 
1896.000000	21.433589 
1895.000000	21.418093 
1894.000000	21.401386 
1893.000000	21.375324 
1892.000000	21.345191 
1891.000000	21.317495 
1890.000000	21.288707 
1889.000000	21.250189 
1888.000000	21.199126 
1887.000000	21.141280 
1886.000000	21.086308 
1885.000000	21.042006 
1884.000000	21.009781 
1883.000000	20.983651 
1882.000000	20.955081 
1881.000000	20.919852 
1880.000000	20.879907 
1879.000000	20.840811 
1878.000000	20.810977 
1877.000000	20.799375 
1876.000000	20.806632 
1875.000000	20.819473 
1874.000000	20.819807 
1873.000000	20.800547 
1872.000000	20.767855 
1871.000000	20.727261 
1870.000000	20.675323 
1869.000000	20.611353 
1868.000000	20.547889 
1867.000000	20.496572 
1866.000000	20.456425 
1865.000000	20.422827 
1864.000000	20.393734 
1863.000000	20.366713 
1862.000000	20.338208 
1861.000000	20.308220 
1860.000000	20.282741 
1859.000000	20.268781 
1858.000000	20.268563 
1857.000000	20.277523 
1856.000000	20.284774 
1855.000000	20.277799 
1854.000000	20.252711 
1853.000000	20.219656 
1852.000000	20.193037 
1851.000000	20.174763 
1850.000000	20.154688 
1849.000000	20.126908 
1848.000000	20.095460 
1847.000000	20.062768 
1846.000000	20.022936 
1845.000000	19.976431 
1844.000000	19.943729 
1843.000000	19.938606 
1842.000000	19.942052 
1841.000000	19.933109 
1840.000000	19.916673 
1839.000000	19.908778 
1838.000000	19.913824 
1837.000000	19.918976 
1836.000000	19.911185 
1835.000000	19.892371 
1834.000000	19.874453 
1833.000000	19.866341 
1832.000000	19.866441 
1831.000000	19.860907 
1830.000000	19.832822 
1829.000000	19.781824 
1828.000000	19.728733 
1827.000000	19.697299 
1826.000000	19.694546 
1825.000000	19.706526 
1824.000000	19.712683 
1823.000000	19.704196 
1822.000000	19.685215 
1821.000000	19.661884 
1820.000000	19.637496 
1819.000000	19.614620 
1818.000000	19.595058 
1817.000000	19.577364 
1816.000000	19.557648 
1815.000000	19.533037 
1814.000000	19.504955 
1813.000000	19.481234 
1812.000000	19.470699 
1811.000000	19.471939 
1810.000000	19.471681 
1809.000000	19.461733 
1808.000000	19.451174 
1807.000000	19.450256 
1806.000000	19.450550 
1805.000000	19.433279 
1804.000000	19.394136 
1803.000000	19.349677 
1802.000000	19.317891 
1801.000000	19.303569 
1800.000000	19.303130 
1799.000000	19.313085 
1798.000000	19.326456 
1797.000000	19.328793 
1796.000000	19.309778 
1795.000000	19.276854 
1794.000000	19.251074 
1793.000000	19.249874 
1792.000000	19.271403 
1791.000000	19.294587 
1790.000000	19.302182 
1789.000000	19.295896 
1788.000000	19.282122 
1787.000000	19.258765 
1786.000000	19.224251 
1785.000000	19.192301 
1784.000000	19.184131 
1783.000000	19.203035 
1782.000000	19.228922 
1781.000000	19.240740 
1780.000000	19.237061 
1779.000000	19.232895 
1778.000000	19.236576 
1777.000000	19.239171 
1776.000000	19.228195 
1775.000000	19.201407 
1774.000000	19.166630 
1773.000000	19.135162 
1772.000000	19.122161 
1771.000000	19.133305 
1770.000000	19.154121 
1769.000000	19.169880 
1768.000000	19.176536 
1767.000000	19.174450 
1766.000000	19.161998 
1765.000000	19.135323 
1764.000000	19.095697 
1763.000000	19.057055 
1762.000000	19.044257 
1761.000000	19.065911 
1760.000000	19.095368 
1759.000000	19.102720 
1758.000000	19.080769 
1757.000000	19.037085 
1756.000000	18.985350 
1755.000000	18.937689 
1754.000000	18.901347 
1753.000000	18.878660 
1752.000000	18.868220 
1751.000000	18.872571 
1750.000000	18.898164 
1749.000000	18.939481 
1748.000000	18.975395 
1747.000000	18.983228 
1746.000000	18.955662 
1745.000000	18.907310 
1744.000000	18.863172 
1743.000000	18.842616 
1742.000000	18.847076 
1741.000000	18.861231 
1740.000000	18.867945 
1739.000000	18.861994 
1738.000000	18.850547 
1737.000000	18.843108 
1736.000000	18.841976 
1735.000000	18.834691 
1734.000000	18.819447 
1733.000000	18.810000 
1732.000000	18.800761 
1731.000000	18.783862 
1730.000000	18.763483 
1729.000000	18.744197 
1728.000000	18.732833 
1727.000000	18.733422 
1726.000000	18.741802 
1725.000000	18.747722 
1724.000000	18.743700 
1723.000000	18.734848 
1722.000000	18.735216 
1721.000000	18.753886 
1720.000000	18.784219 
1719.000000	18.800423 
1718.000000	18.779761 
1717.000000	18.744291 
1716.000000	18.737273 
1715.000000	18.761645 
1714.000000	18.789130 
1713.000000	18.796781 
1712.000000	18.781352 
1711.000000	18.754068 
1710.000000	18.727286 
1709.000000	18.711766 
1708.000000	18.713661 
1707.000000	18.724889 
1706.000000	18.722853 
1705.000000	18.694283 
1704.000000	18.652773 
1703.000000	18.620875 
1702.000000	18.605421 
1701.000000	18.598672 
1700.000000	18.606342 
1699.000000	18.624722 
1698.000000	18.629226 
1697.000000	18.616220 
1696.000000	18.591845 
1695.000000	18.558839 
1694.000000	18.520363 
1693.000000	18.487731 
1692.000000	18.476524 
1691.000000	18.483298 
1690.000000	18.487478 
1689.000000	18.472771 
1688.000000	18.442027 
1687.000000	18.404914 
1686.000000	18.361190 
1685.000000	18.304731 
1684.000000	18.265183 
1683.000000	18.263256 
1682.000000	18.255096 
1681.000000	18.218295 
1680.000000	18.171542 
1679.000000	18.133511 
1678.000000	18.113079 
1677.000000	18.102772 
1676.000000	18.087811 
1675.000000	18.063817 
1674.000000	18.038123 
1673.000000	18.013975 
1672.000000	17.989747 
1671.000000	17.958705 
1670.000000	17.912336 
1669.000000	17.853836 
1668.000000	17.791571 
1667.000000	17.731398 
1666.000000	17.681587 
1665.000000	17.646651 
1664.000000	17.619950 
1663.000000	17.591380 
1662.000000	17.560458 
1661.000000	17.534753 
1660.000000	17.517417 
1659.000000	17.500678 
1658.000000	17.471624 
1657.000000	17.429406 
1656.000000	17.388833 
1655.000000	17.364952 
1654.000000	17.352514 
1653.000000	17.351619 
1652.000000	17.339721 
1651.000000	17.277787 
1650.000000	17.189566 
1649.000000	17.102866 
1648.000000	17.014806 
1647.000000	16.941818 
1646.000000	16.909123 
1645.000000	16.895855 
1644.000000	16.864985 
1643.000000	16.815903 
1642.000000	16.761281 
1641.000000	16.712205 
1640.000000	16.681255 
1639.000000	16.672782 
1638.000000	16.673177 
1637.000000	16.655184 
1636.000000	16.617293 
1635.000000	16.598889 
1634.000000	16.607526 
1633.000000	16.609195 
1632.000000	16.591681 
1631.000000	16.561053 
1630.000000	16.521834 
1629.000000	16.480065 
1628.000000	16.447793 
1627.000000	16.433780 
1626.000000	16.428269 
1625.000000	16.414674 
1624.000000	16.392641 
1623.000000	16.384489 
1622.000000	16.402586 
1621.000000	16.426612 
1620.000000	16.435501 
1619.000000	16.425803 
1618.000000	16.396478 
1617.000000	16.353922 
1616.000000	16.324385 
1615.000000	16.323965 
1614.000000	16.339482 
1613.000000	16.352917 
1612.000000	16.357419 
1611.000000	16.361223 
1610.000000	16.378618 
1609.000000	16.409509 
1608.000000	16.437316 
1607.000000	16.448921 
1606.000000	16.446252 
1605.000000	16.438186 
1604.000000	16.431033 
1603.000000	16.427457 
1602.000000	16.426167 
1601.000000	16.422170 
1600.000000	16.415209 
1599.000000	16.413762 
1598.000000	16.423114 
1597.000000	16.433890 
1596.000000	16.430732 
1595.000000	16.409917 
1594.000000	16.379942 
1593.000000	16.347242 
1592.000000	16.312190 
1591.000000	16.278524 
1590.000000	16.255062 
1589.000000	16.245387 
1588.000000	16.243170 
1587.000000	16.238814 
1586.000000	16.225102 
1585.000000	16.198954 
1584.000000	16.166537 
1583.000000	16.143518 
1582.000000	16.140945 
1581.000000	16.149036 
1580.000000	16.146497 
1579.000000	16.128218 
1578.000000	16.113060 
1577.000000	16.126453 
1576.000000	16.171149 
1575.000000	16.208553 
1574.000000	16.205163 
1573.000000	16.176510 
1572.000000	16.151672 
1571.000000	16.138398 
1570.000000	16.128616 
1569.000000	16.113460 
1568.000000	16.089739 
1567.000000	16.063210 
1566.000000	16.046179 
1565.000000	16.042791 
1564.000000	16.045145 
1563.000000	16.044603 
1562.000000	16.029372 
1561.000000	15.988730 
1560.000000	15.913936 
1559.000000	15.888889 
1558.000000	15.984131 
1557.000000	16.070015 
1556.000000	16.070862 
1555.000000	16.039729 
1554.000000	16.011958 
1553.000000	15.990741 
1552.000000	15.959889 
1551.000000	15.915774 
1550.000000	15.868624 
1549.000000	15.832148 
1548.000000	15.813476 
1547.000000	15.810758 
1546.000000	15.814703 
1545.000000	15.809288 
1544.000000	15.787830 
1543.000000	15.761976 
1542.000000	15.745082 
1541.000000	15.734535 
1540.000000	15.735805 
1539.000000	15.762091 
1538.000000	15.793467 
1537.000000	15.809148 
1536.000000	15.813833 
1535.000000	15.810766 
1534.000000	15.801284 
1533.000000	15.792900 
1532.000000	15.782869 
1531.000000	15.761654 
1530.000000	15.736187 
1529.000000	15.719277 
1528.000000	15.710372 
1527.000000	15.694577 
1526.000000	15.658101 
1525.000000	15.605425 
1524.000000	15.552875 
1523.000000	15.508802 
1522.000000	15.470329 
1521.000000	15.438165 
1520.000000	15.412735 
1519.000000	15.389587 
1518.000000	15.370750 
1517.000000	15.359405 
1516.000000	15.352168 
1515.000000	15.339053 
1514.000000	15.311421 
1513.000000	15.271187 
1512.000000	15.228947 
1511.000000	15.202288 
1510.000000	15.200875 
1509.000000	15.214659 
1508.000000	15.212506 
1507.000000	15.177251 
1506.000000	15.138546 
1505.000000	15.109088 
1504.000000	15.073041 
1503.000000	15.030223 
1502.000000	14.981503 
1501.000000	14.928198 
1500.000000	14.881435 
1499.000000	14.849617 
1498.000000	14.822029 
1497.000000	14.778825 
1496.000000	14.722213 
1495.000000	14.673926 
1494.000000	14.648676 
1493.000000	14.649714 
1492.000000	14.671643 
1491.000000	14.694458 
1490.000000	14.687194 
1489.000000	14.636207 
1488.000000	14.563009 
1487.000000	14.498502 
1486.000000	14.454307 
1485.000000	14.423748 
1484.000000	14.397190 
1483.000000	14.369859 
1482.000000	14.340908 
1481.000000	14.311414 
1480.000000	14.282611 
1479.000000	14.251962 
1478.000000	14.212011 
1477.000000	14.157450 
1476.000000	14.092197 
1475.000000	14.022656 
1474.000000	13.946679 
1473.000000	13.867720 
1472.000000	13.810037 
1471.000000	13.786910 
1470.000000	13.781911 
1469.000000	13.779174 
1468.000000	13.772049 
1467.000000	13.750551 
1466.000000	13.700224 
1465.000000	13.620448 
1464.000000	13.536627 
1463.000000	13.472663 
1462.000000	13.429958 
1461.000000	13.403153 
1460.000000	13.388985 
1459.000000	13.376393 
1458.000000	13.336010 
1457.000000	13.250964 
1456.000000	13.152577 
1455.000000	13.074855 
1454.000000	13.020439 
1453.000000	12.982479 
1452.000000	12.957132 
1451.000000	12.941571 
1450.000000	12.926113 
1449.000000	12.900055 
1448.000000	12.867993 
1447.000000	12.844027 
1446.000000	12.826953 
1445.000000	12.801301 
1444.000000	12.759449 
1443.000000	12.707646 
1442.000000	12.656476 
1441.000000	12.616291 
1440.000000	12.597838 
1439.000000	12.602151 
1438.000000	12.607615 
1437.000000	12.584858 
1436.000000	12.539901 
1435.000000	12.503616 
1434.000000	12.477950 
1433.000000	12.442159 
1432.000000	12.386763 
1431.000000	12.321466 
1430.000000	12.258038 
1429.000000	12.197880 
1428.000000	12.149476 
1427.000000	12.130823 
1426.000000	12.140651 
1425.000000	12.148841 
1424.000000	12.130810 
1423.000000	12.102630 
1422.000000	12.092943 
1421.000000	12.094865 
1420.000000	12.070840 
1419.000000	12.008007 
1418.000000	11.947137 
1417.000000	11.922919 
1416.000000	11.925320 
1415.000000	11.928363 
1414.000000	11.913453 
1413.000000	11.879097 
1412.000000	11.841488 
1411.000000	11.818809 
1410.000000	11.808340 
1409.000000	11.788546 
1408.000000	11.749751 
1407.000000	11.706922 
1406.000000	11.674698 
1405.000000	11.641837 
1404.000000	11.586049 
1403.000000	11.508745 
1402.000000	11.434142 
1401.000000	11.383619 
1400.000000	11.369945 
1399.000000	11.399710 
1398.000000	11.458533 
1397.000000	11.509148 
1396.000000	11.520211 
1395.000000	11.490595 
1394.000000	11.445283 
1393.000000	11.405694 
1392.000000	11.375223 
1391.000000	11.352998 
1390.000000	11.338675 
1389.000000	11.326197 
1388.000000	11.307431 
1387.000000	11.285542 
1386.000000	11.273130 
1385.000000	11.273596 
1384.000000	11.277258 
1383.000000	11.271415 
1382.000000	11.245902 
1381.000000	11.196915 
1380.000000	11.133858 
1379.000000	11.079018 
1378.000000	11.048065 
1377.000000	11.028814 
1376.000000	10.992071 
1375.000000	10.928587 
1374.000000	10.866792 
1373.000000	10.838493 
1372.000000	10.838104 
1371.000000	10.838269 
1370.000000	10.825401 
1369.000000	10.805346 
1368.000000	10.788434 
1367.000000	10.777139 
1366.000000	10.765844 
1365.000000	10.746285 
1364.000000	10.713739 
1363.000000	10.675732 
1362.000000	10.651675 
1361.000000	10.652500 
1360.000000	10.667476 
1359.000000	10.677255 
1358.000000	10.669459 
1357.000000	10.641462 
1356.000000	10.596980 
1355.000000	10.543475 
1354.000000	10.489857 
1353.000000	10.442170 
1352.000000	10.401510 
1351.000000	10.366848 
1350.000000	10.337616 
1349.000000	10.312386 
1348.000000	10.288335 
1347.000000	10.264720 
1346.000000	10.243113 
1345.000000	10.221930 
1344.000000	10.195122 
1343.000000	10.158951 
1342.000000	10.116608 
1341.000000	10.074272 
1340.000000	10.036243 
1339.000000	10.005551 
1338.000000	9.984243  
1337.000000	9.969774  
1336.000000	9.955983  
1335.000000	9.941153  
1334.000000	9.930580  
1333.000000	9.926452  
1332.000000	9.918785  
1331.000000	9.893405  
1330.000000	9.849256  
1329.000000	9.800981  
1328.000000	9.762426  
1327.000000	9.734650  
1326.000000	9.711453  
1325.000000	9.688112  
1324.000000	9.661353  
1323.000000	9.628296  
1322.000000	9.591222  
1321.000000	9.559187  
1320.000000	9.539299  
1319.000000	9.527976  
1318.000000	9.514390  
1317.000000	9.490633  
1316.000000	9.455496  
1315.000000	9.412213  
1314.000000	9.367609  
1313.000000	9.330404  
1312.000000	9.304284  
1311.000000	9.283506  
1310.000000	9.259620  
1309.000000	9.231317  
1308.000000	9.204238  
1307.000000	9.182304  
1306.000000	9.162441  
1305.000000	9.137853  
1304.000000	9.104783  
1303.000000	9.066645  
1302.000000	9.031718  
1301.000000	9.004322  
1300.000000	8.979030  
1299.000000	8.949342  
1298.000000	8.922583  
1297.000000	8.915736  
1296.000000	8.929543  
1295.000000	8.936734  
1294.000000	8.909580  
1293.000000	8.854943  
1292.000000	8.808583  
1291.000000	8.795520  
1290.000000	8.806684  
1289.000000	8.814205  
1288.000000	8.798579  
1287.000000	8.759139  
1286.000000	8.708972  
1285.000000	8.664793  
1284.000000	8.633932  
1283.000000	8.605791  
1282.000000	8.564132  
1281.000000	8.511375  
1280.000000	8.469316  
1279.000000	8.451699  
1278.000000	8.447680  
1277.000000	8.438737  
1276.000000	8.420881  
1275.000000	8.401050  
1274.000000	8.382592  
1273.000000	8.366246  
1272.000000	8.356739  
1271.000000	8.353745  
1270.000000	8.339492  
1269.000000	8.289443  
1268.000000	8.198766  
1267.000000	8.092617  
1266.000000	8.008092  
1265.000000	7.966587  
1264.000000	7.961160  
1263.000000	7.966774  
1262.000000	7.963607  
1261.000000	7.951863  
1260.000000	7.941091  
1259.000000	7.927992  
1258.000000	7.896566  
1257.000000	7.842270  
1256.000000	7.781955  
1255.000000	7.733115  
1254.000000	7.695288  
1253.000000	7.661252  
1252.000000	7.635076  
1251.000000	7.625376  
1250.000000	7.628007  
1249.000000	7.628711  
1248.000000	7.618445  
1247.000000	7.596733  
1246.000000	7.566812  
1245.000000	7.537090  
1244.000000	7.518801  
1243.000000	7.510060  
1242.000000	7.490080  
1241.000000	7.443112  
1240.000000	7.381374  
1239.000000	7.329619  
1238.000000	7.293932  
1237.000000	7.263965  
1236.000000	7.240552  
1235.000000	7.237473  
1234.000000	7.252902  
1233.000000	7.259876  
1232.000000	7.234121  
1231.000000	7.179536  
1230.000000	7.120358  
1229.000000	7.077385  
1228.000000	7.056008  
1227.000000	7.048248  
1226.000000	7.040276  
1225.000000	7.021762  
1224.000000	6.990719  
1223.000000	6.950157  
1222.000000	6.906219  
1221.000000	6.874068  
1220.000000	6.875465  
1219.000000	6.916302  
1218.000000	6.970742  
1217.000000	7.002340  
1216.000000	6.999496  
1215.000000	6.979511  
1214.000000	6.961629  
1213.000000	6.949036  
1212.000000	6.937201  
1211.000000	6.926286  
1210.000000	6.921455  
1209.000000	6.929251  
1208.000000	6.952987  
1207.000000	6.982787  
1206.000000	6.993466  
1205.000000	6.965703  
1204.000000	6.909873  
1203.000000	6.858463  
1202.000000	6.835325  
1201.000000	6.841721  
1200.000000	6.868156  
1199.000000	6.902982  
1198.000000	6.930761  
1197.000000	6.941404  
1196.000000	6.942998  
1195.000000	6.951504  
1194.000000	6.967385  
1193.000000	6.975655  
1192.000000	6.969324  
1191.000000	6.957336  
1190.000000	6.946651  
1189.000000	6.932507  
1188.000000	6.913115  
1187.000000	6.899855  
1186.000000	6.902532  
1185.000000	6.916316  
1184.000000	6.932034  
1183.000000	6.947626  
1182.000000	6.963900  
1181.000000	6.978629  
1180.000000	6.989687  
1179.000000	6.998700  
1178.000000	7.006900  
1177.000000	7.010156  
1176.000000	7.002264  
1175.000000	6.982675  
1174.000000	6.959828  
1173.000000	6.946639  
1172.000000	6.949558  
1171.000000	6.959891  
1170.000000	6.961096  
1169.000000	6.948351  
1168.000000	6.933800  
1167.000000	6.928282  
1166.000000	6.928305  
1165.000000	6.927998  
1164.000000	6.930849  
1163.000000	6.936257  
1162.000000	6.925818  
1161.000000	6.883689  
1160.000000	6.825436  
1159.000000	6.785687  
1158.000000	6.779482  
1157.000000	6.794497  
1156.000000	6.817312  
1155.000000	6.845727  
1154.000000	6.876077  
1153.000000	6.898423  
1152.000000	6.905670  
1151.000000	6.895347  
1150.000000	6.866344  
1149.000000	6.826014  
1148.000000	6.796839  
1147.000000	6.800152  
1146.000000	6.833014  
1145.000000	6.876302  
1144.000000	6.921054  
1143.000000	6.966695  
1142.000000	6.999083  
1141.000000	6.997397  
1140.000000	6.964884  
1139.000000	6.927584  
1138.000000	6.899562  
1137.000000	6.877547  
1136.000000	6.870838  
1135.000000	6.897580  
1134.000000	6.942324  
1133.000000	6.956966  
1132.000000	6.923254  
1131.000000	6.883302  
1130.000000	6.884866  
1129.000000	6.921578  
1128.000000	6.953065  
1127.000000	6.961052  
1126.000000	6.955521  
1125.000000	6.942533  
1124.000000	6.919788  
1123.000000	6.898361  
1122.000000	6.899292  
1121.000000	6.926148  
1120.000000	6.960315  
1119.000000	6.983182  
1118.000000	6.987772  
1117.000000	6.973623  
1116.000000	6.949362  
1115.000000	6.938693  
1114.000000	6.961870  
1113.000000	7.007561  
1112.000000	7.039752  
1111.000000	7.034447  
1110.000000	6.999405  
1109.000000	6.958349  
1108.000000	6.927595  
1107.000000	6.912087  
1106.000000	6.911629  
1105.000000	6.921193  
1104.000000	6.931236  
1103.000000	6.935610  
1102.000000	6.935987  
1101.000000	6.936021  
1100.000000	6.937881  
1099.000000	6.946483  
1098.000000	6.972648  
1097.000000	7.026905  
1096.000000	7.105126  
1095.000000	7.179137  
1094.000000	7.209826  
1093.000000	7.181335  
1092.000000	7.122653  
1091.000000	7.086131  
1090.000000	7.100629  
1089.000000	7.149569  
1088.000000	7.194156  
1087.000000	7.209505  
1086.000000	7.195658  
1085.000000	7.165164  
1084.000000	7.131926  
1083.000000	7.107671  
1082.000000	7.097611  
1081.000000	7.098111  
1080.000000	7.103685  
1079.000000	7.116966  
1078.000000	7.148029  
1077.000000	7.200865  
1076.000000	7.260433  
1075.000000	7.296098  
1074.000000	7.284760  
1073.000000	7.235707  
1072.000000	7.187480  
1071.000000	7.172786  
1070.000000	7.190253  
1069.000000	7.215013  
1068.000000	7.229043  
1067.000000	7.233934  
1066.000000	7.241641  
1065.000000	7.264707  
1064.000000	7.312017  
1063.000000	7.380779  
1062.000000	7.452693  
1061.000000	7.507555  
1060.000000	7.539156  
1059.000000	7.552621  
1058.000000	7.555119  
1057.000000	7.558981  
1056.000000	7.582035  
1055.000000	7.624104  
1054.000000	7.647671  
1053.000000	7.607848  
1052.000000	7.508401  
1051.000000	7.408842  
1050.000000	7.367562  
1049.000000	7.393715  
1048.000000	7.461274  
1047.000000	7.546775  
1046.000000	7.636683  
1045.000000	7.716307  
1044.000000	7.769480  
1043.000000	7.786319  
1042.000000	7.773230  
1041.000000	7.757747  
1040.000000	7.771681  
1039.000000	7.817534  
1038.000000	7.859863  
1037.000000	7.868398  
1036.000000	7.862215  
1035.000000	7.885506  
1034.000000	7.943399  
1033.000000	7.994825  
1032.000000	8.011895  
1031.000000	8.009623  
1030.000000	8.009199  
1029.000000	8.006522  
1028.000000	7.995547  
1027.000000	7.992877  
1026.000000	8.012086  
1025.000000	8.037502  
1024.000000	8.050892  
1023.000000	8.065454  
1022.000000	8.102567  
1021.000000	8.153370  
1020.000000	8.196029  
1019.000000	8.233694  
1018.000000	8.282444  
1017.000000	8.333223  
1016.000000	8.361159  
1015.000000	8.368378  
1014.000000	8.383606  
1013.000000	8.419730  
1012.000000	8.460267  
1011.000000	8.485063  
1010.000000	8.485512  
1009.000000	8.464131  
1008.000000	8.447131  
1007.000000	8.479020  
1006.000000	8.553551  
1005.000000	8.561109  
1004.000000	8.385894  
1003.000000	8.086004  
1002.000000	7.910293  
1001.000000	8.041420  
1000.000000	8.371804  
999.000000	 8.662906  
998.000000	 8.807252  
997.000000	 8.848768  
996.000000	 8.871633  
995.000000	 8.909825  
994.000000	 8.946265  
993.000000	 8.966633  
992.000000	 8.971675  
991.000000	 8.961458  
990.000000	 8.944255  
989.000000	 8.945681  
988.000000	 8.983854  
987.000000	 9.045897  
986.000000	 9.105169  
985.000000	 9.149422  
984.000000	 9.175891  
983.000000	 9.175670  
982.000000	 9.148268  
981.000000	 9.121730  
980.000000	 9.131744  
979.000000	 9.179900  
978.000000	 9.231902  
977.000000	 9.259576  
976.000000	 9.267844  
975.000000	 9.278156  
974.000000	 9.303066  
973.000000	 9.342687  
972.000000	 9.392332  
971.000000	 9.445636  
970.000000	 9.497078  
969.000000	 9.546564  
968.000000	 9.596903  
967.000000	 9.645175  
966.000000	 9.683521  
965.000000	 9.710376  
964.000000	 9.733169  
963.000000	 9.756453  
962.000000	 9.774329  
961.000000	 9.780060  
960.000000	 9.778884  
959.000000	 9.785474  
958.000000	 9.809786  
957.000000	 9.848322  
956.000000	 9.889142  
955.000000	 9.925158  
954.000000	 9.962292  
953.000000	 10.011993 
952.000000	 10.074616 
951.000000	 10.134575 
950.000000	 10.174732 
949.000000	 10.189679 
948.000000	 10.180794 
947.000000	 10.147956 
946.000000	 10.096976 
945.000000	 10.049734 
944.000000	 10.033349 
943.000000	 10.058118 
942.000000	 10.116099 
941.000000	 10.199336 
940.000000	 10.303578 
939.000000	 10.412033 
938.000000	 10.494490 
937.000000	 10.533646 
936.000000	 10.542711 
935.000000	 10.550271 
934.000000	 10.576705 
933.000000	 10.628444 
932.000000	 10.700035 
931.000000	 10.771537 
930.000000	 10.816349 
929.000000	 10.826050 
928.000000	 10.820454 
927.000000	 10.823122 
926.000000	 10.836011 
925.000000	 10.849348 
924.000000	 10.867338 
923.000000	 10.908710 
922.000000	 10.984229 
921.000000	 11.083977 
920.000000	 11.184815 
919.000000	 11.263367 
918.000000	 11.308133 
917.000000	 11.329540 
916.000000	 11.351593 
915.000000	 11.382424 
914.000000	 11.402963 
913.000000	 11.399743 
912.000000	 11.398701 
911.000000	 11.445398 
910.000000	 11.553975 
909.000000	 11.695494 
908.000000	 11.836441 
907.000000	 11.965488 
906.000000	 12.076469 
905.000000	 12.149335 
904.000000	 12.165938 
903.000000	 12.134615 
902.000000	 12.086963 
901.000000	 12.055699 
900.000000	 12.060704 
899.000000	 12.104722 
898.000000	 12.172429 
897.000000	 12.242298 
896.000000	 12.307198 
895.000000	 12.374000 
894.000000	 12.436820 
893.000000	 12.467529 
892.000000	 12.451633 
891.000000	 12.424789 
890.000000	 12.449128 
889.000000	 12.548504 
888.000000	 12.684006 
887.000000	 12.799747 
886.000000	 12.878334 
885.000000	 12.939919 
884.000000	 12.997413 
883.000000	 13.032907 
882.000000	 13.023536 
881.000000	 12.979503 
880.000000	 12.945571 
879.000000	 12.965355 
878.000000	 13.049296 
877.000000	 13.172737 
876.000000	 13.295715 
875.000000	 13.386498 
874.000000	 13.440956 
873.000000	 13.490290 
872.000000	 13.580240 
871.000000	 13.725213 
870.000000	 13.883426 
869.000000	 13.991481 
868.000000	 14.023325 
867.000000	 14.003626 
866.000000	 13.969885 
865.000000	 13.945483 
864.000000	 13.954117 
863.000000	 14.024674 
862.000000	 14.154118 
861.000000	 14.286597 
860.000000	 14.359849 
859.000000	 14.368588 
858.000000	 14.359285 
857.000000	 14.368702 
856.000000	 14.396155 
855.000000	 14.431290 
854.000000	 14.473521 
853.000000	 14.516212 
852.000000	 14.542621 
851.000000	 14.553668 
850.000000	 14.575209 
849.000000	 14.619312 
848.000000	 14.660340 
847.000000	 14.671162 
846.000000	 14.665348 
845.000000	 14.679780 
844.000000	 14.729151 
843.000000	 14.801150 
842.000000	 14.883980 
841.000000	 14.971749 
840.000000	 15.048473 
839.000000	 15.095369 
838.000000	 15.119811 
837.000000	 15.153816 
836.000000	 15.215179 
835.000000	 15.288329 
834.000000	 15.348825 
833.000000	 15.391101 
832.000000	 15.424555 
831.000000	 15.452641 
830.000000	 15.464983 
829.000000	 15.448107 
828.000000	 15.404700 
827.000000	 15.365665 
826.000000	 15.374037 
825.000000	 15.445765 
824.000000	 15.553390 
823.000000	 15.659345 
822.000000	 15.753739 
821.000000	 15.840747 
820.000000	 15.901583 
819.000000	 15.905443 
818.000000	 15.860142 
817.000000	 15.820377 
816.000000	 15.830708 
815.000000	 15.881402 
814.000000	 15.937487 
813.000000	 15.993427 
812.000000	 16.074252 
811.000000	 16.189472 
810.000000	 16.310178 
809.000000	 16.398725 
808.000000	 16.451005 
807.000000	 16.498745 
806.000000	 16.571820 
805.000000	 16.667339 
804.000000	 16.756733 
803.000000	 16.818566 
802.000000	 16.857948 
801.000000	 16.891761 
800.000000	 16.924084 
799.000000	 16.947349 
798.000000	 16.960621 
797.000000	 16.969057 
796.000000	 16.968181 
795.000000	 16.947187 
794.000000	 16.913625 
793.000000	 16.904119 
792.000000	 16.960770 
791.000000	 17.094402 
790.000000	 17.267526 
789.000000	 17.412494 
788.000000	 17.477404 
787.000000	 17.466283 
786.000000	 17.431858 
785.000000	 17.422569 
784.000000	 17.443918 
783.000000	 17.478257 
782.000000	 17.525826 
781.000000	 17.605069 
780.000000	 17.720486 
779.000000	 17.853136 
778.000000	 17.980881 
777.000000	 18.087822 
776.000000	 18.156318 
775.000000	 18.174391 
774.000000	 18.156197 
773.000000	 18.135630 
772.000000	 18.135408 
771.000000	 18.158908 
770.000000	 18.210030 
769.000000	 18.296139 
768.000000	 18.407867 
767.000000	 18.522114 
766.000000	 18.631992 
765.000000	 18.746280 
764.000000	 18.850027 
763.000000	 18.899251 
762.000000	 18.878614 
761.000000	 18.841405 
760.000000	 18.864488 
759.000000	 18.973395 
758.000000	 19.131525 
757.000000	 19.292908 
756.000000	 19.440840 
755.000000	 19.576527 
754.000000	 19.693891 
753.000000	 19.774017 
752.000000	 19.796947 
751.000000	 19.761093 
750.000000	 19.698947 
749.000000	 19.666180 
748.000000	 19.700396 
747.000000	 19.790757 
746.000000	 19.895479 
745.000000	 19.985332 
744.000000	 20.064022 
743.000000	 20.152064 
742.000000	 20.259134 
741.000000	 20.370265 
740.000000	 20.455375 
739.000000	 20.495036 
738.000000	 20.498686 
737.000000	 20.495632 
736.000000	 20.510110 
735.000000	 20.551379 
734.000000	 20.624059 
733.000000	 20.730991 
732.000000	 20.860673 
731.000000	 20.985036 
730.000000	 21.074555 
729.000000	 21.115222 
728.000000	 21.118372 
727.000000	 21.119499 
726.000000	 21.159322 
725.000000	 21.248749 
724.000000	 21.353791 
723.000000	 21.430439 
722.000000	 21.470394 
721.000000	 21.494720 
720.000000	 21.512311 
719.000000	 21.520573 
718.000000	 21.543497 
717.000000	 21.618991 
716.000000	 21.739635 
715.000000	 21.846181 
714.000000	 21.899667 
713.000000	 21.929682 
712.000000	 21.983052 
711.000000	 22.055816 
710.000000	 22.111311 
709.000000	 22.141588 
708.000000	 22.172813 
707.000000	 22.222825 
706.000000	 22.291612 
705.000000	 22.383342 
704.000000	 22.498854 
703.000000	 22.611983 
702.000000	 22.688639 
701.000000	 22.731607 
700.000000	 22.782674 
699.000000	 22.875245 
698.000000	 23.004223 
697.000000	 23.139710 
696.000000	 23.247125 
695.000000	 23.297696 
694.000000	 23.281324 
693.000000	 23.217920 
692.000000	 23.148314 
691.000000	 23.111148 
690.000000	 23.138067 
689.000000	 23.254971 
688.000000	 23.453308 
687.000000	 23.666306 
686.000000	 23.814268 
685.000000	 23.883756 
684.000000	 23.935880 
683.000000	 24.025849 
682.000000	 24.138213 
681.000000	 24.217130 
680.000000	 24.245788 
679.000000	 24.269454 
678.000000	 24.342421 
677.000000	 24.457207 
676.000000	 24.567865 
675.000000	 24.625025 
674.000000	 24.627716 
673.000000	 24.634794 
672.000000	 24.711662 
671.000000	 24.890806 
670.000000	 25.206834 
669.000000	 25.674270 
668.000000	 26.045913 
667.000000	 25.950599 
666.000000	 25.553363 
665.000000	 25.264879 
664.000000	 25.199872 
663.000000	 25.301664 
662.000000	 25.459411 
661.000000	 25.545794 
660.000000	 25.526946 
659.000000	 25.462287 
658.000000	 25.466253 
657.000000	 25.520922 
656.000000	 25.640474 
655.000000	 25.383353 
654.000000	 25.302873 
653.000000	 25.314737 
652.000000	 25.366146 
651.000000	 25.489839 
650.000000	 25.604614 

