PE IR                   SPECTRUM    ASCII       PEDS        1.60        
  -1
~SP.SP
22/02/22
09:59:59.00
22/02/22
09:59:59.00
Administrator

650.000000
4









SPECTRUM 100,CPU32 MAIN 00.02.7000 27-JANUARY-2006 11:32:41
MCT
MIR
OPTKBR
76073
1.000000

4.000000
STRONG
RATIO
SPECTRUM
MAGNITUDE
MIR INT SPHERE
DOUBLE

COMBINED


0


#HDR
-1
-1
#GR
CM-1
%T
0.00002384185791015625
0.0
4000.000000
-1.000000
3351
8
31.303099
6.488772
#DATA
4000.000000	23.007873 
3999.000000	23.019504 
3998.000000	23.031175 
3997.000000	23.029994 
3996.000000	23.011743 
3995.000000	22.975812 
3994.000000	22.931943 
3993.000000	22.899289 
3992.000000	22.893862 
3991.000000	22.915107 
3990.000000	22.945647 
3989.000000	22.965332 
3988.000000	22.966995 
3987.000000	22.959987 
3986.000000	22.959405 
3985.000000	22.970125 
3984.000000	22.980390 
3983.000000	22.972907 
3982.000000	22.943672 
3981.000000	22.908638 
3980.000000	22.889171 
3979.000000	22.891902 
3978.000000	22.904815 
3977.000000	22.912634 
3976.000000	22.912543 
3975.000000	22.913280 
3974.000000	22.921278 
3973.000000	22.930557 
3972.000000	22.927548 
3971.000000	22.904965 
3970.000000	22.871037 
3969.000000	22.844926 
3968.000000	22.841988 
3967.000000	22.861482 
3966.000000	22.887043 
3965.000000	22.898817 
3964.000000	22.886430 
3963.000000	22.854660 
3962.000000	22.820267 
3961.000000	22.803041 
3960.000000	22.815338 
3959.000000	22.854981 
3958.000000	22.906626 
3957.000000	22.950673 
3956.000000	22.973654 
3955.000000	22.973174 
3954.000000	22.954795 
3953.000000	22.924952 
3952.000000	22.886448 
3951.000000	22.840866 
3950.000000	22.794683 
3949.000000	22.760085 
3948.000000	22.746117 
3947.000000	22.749652 
3946.000000	22.757757 
3945.000000	22.759235 
3944.000000	22.752742 
3943.000000	22.744948 
3942.000000	22.743438 
3941.000000	22.752240 
3940.000000	22.772592 
3939.000000	22.804097 
3938.000000	22.843256 
3937.000000	22.882283 
3936.000000	22.911533 
3935.000000	22.923901 
3934.000000	22.916666 
3933.000000	22.891297 
3932.000000	22.853946 
3931.000000	22.815594 
3930.000000	22.788207 
3929.000000	22.777156 
3928.000000	22.777550 
3927.000000	22.778771 
3926.000000	22.773427 
3925.000000	22.763969 
3924.000000	22.759068 
3923.000000	22.761097 
3922.000000	22.760864 
3921.000000	22.750444 
3920.000000	22.739034 
3919.000000	22.749290 
3918.000000	22.793601 
3917.000000	22.857379 
3916.000000	22.911760 
3915.000000	22.941550 
3914.000000	22.954181 
3913.000000	22.964895 
3912.000000	22.981355 
3911.000000	23.000534 
3910.000000	23.014234 
3909.000000	23.015638 
3908.000000	23.001424 
3907.000000	22.972269 
3906.000000	22.934477 
3905.000000	22.899856 
3904.000000	22.879740 
3903.000000	22.875086 
3902.000000	22.873604 
3901.000000	22.859635 
3900.000000	22.826474 
3899.000000	22.778790 
3898.000000	22.726702 
3897.000000	22.680686 
3896.000000	22.651272 
3895.000000	22.646321 
3894.000000	22.663850 
3893.000000	22.689007 
3892.000000	22.704478 
3891.000000	22.706220 
3890.000000	22.703141 
3889.000000	22.700563 
3888.000000	22.693756 
3887.000000	22.677530 
3886.000000	22.657801 
3885.000000	22.651292 
3884.000000	22.668503 
3883.000000	22.700121 
3882.000000	22.727607 
3881.000000	22.740813 
3880.000000	22.743067 
3879.000000	22.741508 
3878.000000	22.735155 
3877.000000	22.717961 
3876.000000	22.691290 
3875.000000	22.665657 
3874.000000	22.652108 
3873.000000	22.653538 
3872.000000	22.661593 
3871.000000	22.662127 
3870.000000	22.647727 
3869.000000	22.624158 
3868.000000	22.601682 
3867.000000	22.586378 
3866.000000	22.583210 
3865.000000	22.598680 
3864.000000	22.632419 
3863.000000	22.668576 
3862.000000	22.685326 
3861.000000	22.674655 
3860.000000	22.648372 
3859.000000	22.626651 
3858.000000	22.623788 
3857.000000	22.640657 
3856.000000	22.663197 
3855.000000	22.668416 
3854.000000	22.647874 
3853.000000	22.628895 
3852.000000	22.639564 
3851.000000	22.668748 
3850.000000	22.694435 
3849.000000	22.711582 
3848.000000	22.722400 
3847.000000	22.726583 
3846.000000	22.722147 
3845.000000	22.706899 
3844.000000	22.678217 
3843.000000	22.633794 
3842.000000	22.576956 
3841.000000	22.518618 
3840.000000	22.474070 
3839.000000	22.461077 
3838.000000	22.492866 
3837.000000	22.563933 
3836.000000	22.648665 
3835.000000	22.719114 
3834.000000	22.759755 
3833.000000	22.766245 
3832.000000	22.742266 
3831.000000	22.702394 
3830.000000	22.665856 
3829.000000	22.640301 
3828.000000	22.615221 
3827.000000	22.572555 
3826.000000	22.507824 
3825.000000	22.439774 
3824.000000	22.395696 
3823.000000	22.391803 
3822.000000	22.428724 
3821.000000	22.495305 
3820.000000	22.572084 
3819.000000	22.637929 
3818.000000	22.678889 
3817.000000	22.693332 
3816.000000	22.690427 
3815.000000	22.681743 
3814.000000	22.668978 
3813.000000	22.643153 
3812.000000	22.603326 
3811.000000	22.565725 
3810.000000	22.549029 
3809.000000	22.555101 
3808.000000	22.563675 
3807.000000	22.550415 
3806.000000	22.515919 
3805.000000	22.487961 
3804.000000	22.493076 
3803.000000	22.533036 
3802.000000	22.581034 
3801.000000	22.600986 
3800.000000	22.577082 
3799.000000	22.519084 
3798.000000	22.448766 
3797.000000	22.389683 
3796.000000	22.358277 
3795.000000	22.358985 
3794.000000	22.384425 
3793.000000	22.420651 
3792.000000	22.455317 
3791.000000	22.480994 
3790.000000	22.495164 
3789.000000	22.500252 
3788.000000	22.500840 
3787.000000	22.497937 
3786.000000	22.487134 
3785.000000	22.463673 
3784.000000	22.429830 
3783.000000	22.395425 
3782.000000	22.370516 
3781.000000	22.359195 
3780.000000	22.359807 
3779.000000	22.367635 
3778.000000	22.377318 
3777.000000	22.384553 
3776.000000	22.387445 
3775.000000	22.387513 
3774.000000	22.388718 
3773.000000	22.394526 
3772.000000	22.405665 
3771.000000	22.420275 
3770.000000	22.436862 
3769.000000	22.455250 
3768.000000	22.473173 
3767.000000	22.484436 
3766.000000	22.481062 
3765.000000	22.457707 
3764.000000	22.418072 
3763.000000	22.376402 
3762.000000	22.348966 
3761.000000	22.342948 
3760.000000	22.352406 
3759.000000	22.363996 
3758.000000	22.367262 
3757.000000	22.361066 
3756.000000	22.350577 
3755.000000	22.338897 
3754.000000	22.323063 
3753.000000	22.298248 
3752.000000	22.266867 
3751.000000	22.242214 
3750.000000	22.236181 
3749.000000	22.245338 
3748.000000	22.262210 
3747.000000	22.291614 
3746.000000	22.338366 
3745.000000	22.394777 
3744.000000	22.446823 
3743.000000	22.473065 
3742.000000	22.449999 
3741.000000	22.378537 
3740.000000	22.288874 
3739.000000	22.217971 
3738.000000	22.187067 
3737.000000	22.189658 
3736.000000	22.199991 
3735.000000	22.204373 
3734.000000	22.219542 
3733.000000	22.262289 
3732.000000	22.314905 
3731.000000	22.342227 
3730.000000	22.330501 
3729.000000	22.296507 
3728.000000	22.263556 
3727.000000	22.240077 
3726.000000	22.222223 
3725.000000	22.208200 
3724.000000	22.202128 
3723.000000	22.203812 
3722.000000	22.203341 
3721.000000	22.189818 
3720.000000	22.165080 
3719.000000	22.144771 
3718.000000	22.140725 
3717.000000	22.146292 
3716.000000	22.143146 
3715.000000	22.119981 
3714.000000	22.086827 
3713.000000	22.073892 
3712.000000	22.108987 
3711.000000	22.183052 
3710.000000	22.246046 
3709.000000	22.254575 
3708.000000	22.211919 
3707.000000	22.155165 
3706.000000	22.118196 
3705.000000	22.107714 
3704.000000	22.105059 
3703.000000	22.085596 
3702.000000	22.040593 
3701.000000	21.984035 
3700.000000	21.938315 
3699.000000	21.918874 
3698.000000	21.930383 
3697.000000	21.967104 
3696.000000	22.012873 
3695.000000	22.046126 
3694.000000	22.050772 
3693.000000	22.025885 
3692.000000	21.984689 
3691.000000	21.944438 
3690.000000	21.918662 
3689.000000	21.914190 
3688.000000	21.925679 
3687.000000	21.933787 
3686.000000	21.922385 
3685.000000	21.894129 
3684.000000	21.863298 
3683.000000	21.841690 
3682.000000	21.831637 
3681.000000	21.826786 
3680.000000	21.818130 
3679.000000	21.799908 
3678.000000	21.768934 
3677.000000	21.722616 
3676.000000	21.671832 
3675.000000	21.647924 
3674.000000	21.667784 
3673.000000	21.708660 
3672.000000	21.736158 
3671.000000	21.733534 
3670.000000	21.709546 
3669.000000	21.692338 
3668.000000	21.698332 
3667.000000	21.711720 
3666.000000	21.709078 
3665.000000	21.684858 
3664.000000	21.649112 
3663.000000	21.613364 
3662.000000	21.578669 
3661.000000	21.537120 
3660.000000	21.485638 
3659.000000	21.433828 
3658.000000	21.396875 
3657.000000	21.382939 
3656.000000	21.387483 
3655.000000	21.396172 
3654.000000	21.393335 
3653.000000	21.369039 
3652.000000	21.319242 
3651.000000	21.246975 
3650.000000	21.171793 
3649.000000	21.126664 
3648.000000	21.126533 
3647.000000	21.150579 
3646.000000	21.168023 
3645.000000	21.165502 
3644.000000	21.147172 
3643.000000	21.123455 
3642.000000	21.101927 
3641.000000	21.084402 
3640.000000	21.069038 
3639.000000	21.053823 
3638.000000	21.037199 
3637.000000	21.015506 
3636.000000	20.983318 
3635.000000	20.939683 
3634.000000	20.893278 
3633.000000	20.855997 
3632.000000	20.828749 
3631.000000	20.796663 
3630.000000	20.744444 
3629.000000	20.683167 
3628.000000	20.646918 
3627.000000	20.645187 
3626.000000	20.650507 
3625.000000	20.640327 
3624.000000	20.614483 
3623.000000	20.577832 
3622.000000	20.528261 
3621.000000	20.459184 
3620.000000	20.372356 
3619.000000	20.285349 
3618.000000	20.216930 
3617.000000	20.166609 
3616.000000	20.120765 
3615.000000	20.073258 
3614.000000	20.033040 
3613.000000	20.014541 
3612.000000	20.021564 
3611.000000	20.038701 
3610.000000	20.039801 
3609.000000	20.008601 
3608.000000	19.953542 
3607.000000	19.899702 
3606.000000	19.862739 
3605.000000	19.835126 
3604.000000	19.799066 
3603.000000	19.745525 
3602.000000	19.681243 
3601.000000	19.623685 
3600.000000	19.591201 
3599.000000	19.590833 
3598.000000	19.609200 
3597.000000	19.617564 
3596.000000	19.592211 
3595.000000	19.532452 
3594.000000	19.458035 
3593.000000	19.388140 
3592.000000	19.327283 
3591.000000	19.272531 
3590.000000	19.222968 
3589.000000	19.177724 
3588.000000	19.133532 
3587.000000	19.090100 
3586.000000	19.051455 
3585.000000	19.016698 
3584.000000	18.979206 
3583.000000	18.939689 
3582.000000	18.909180 
3581.000000	18.895126 
3580.000000	18.890096 
3579.000000	18.878750 
3578.000000	18.853236 
3577.000000	18.815076 
3576.000000	18.765493 
3575.000000	18.705060 
3574.000000	18.645514 
3573.000000	18.612285 
3572.000000	18.625419 
3571.000000	18.677879 
3570.000000	18.733056 
3569.000000	18.743307 
3568.000000	18.681955 
3567.000000	18.573620 
3566.000000	18.484109 
3565.000000	18.460732 
3564.000000	18.490452 
3563.000000	18.522904 
3562.000000	18.518064 
3561.000000	18.472318 
3560.000000	18.412851 
3559.000000	18.373580 
3558.000000	18.372465 
3557.000000	18.404263 
3556.000000	18.446925 
3555.000000	18.474646 
3554.000000	18.470850 
3553.000000	18.436378 
3552.000000	18.387050 
3551.000000	18.341310 
3550.000000	18.307619 
3549.000000	18.282507 
3548.000000	18.258184 
3547.000000	18.231341 
3546.000000	18.206289 
3545.000000	18.190965 
3544.000000	18.190066 
3543.000000	18.202939 
3542.000000	18.226062 
3541.000000	18.253400 
3540.000000	18.274483 
3539.000000	18.277476 
3538.000000	18.259359 
3537.000000	18.232256 
3536.000000	18.214310 
3535.000000	18.212240 
3534.000000	18.215457 
3533.000000	18.206760 
3532.000000	18.176966 
3531.000000	18.129366 
3530.000000	18.074350 
3529.000000	18.023851 
3528.000000	17.988579 
3527.000000	17.974527 
3526.000000	17.979098 
3525.000000	17.993233 
3524.000000	18.010377 
3523.000000	18.032103 
3522.000000	18.061135 
3521.000000	18.089577 
3520.000000	18.099865 
3519.000000	18.082124 
3518.000000	18.049962 
3517.000000	18.035709 
3516.000000	18.065987 
3515.000000	18.138814 
3514.000000	18.222593 
3513.000000	18.277620 
3512.000000	18.284317 
3511.000000	18.255844 
3510.000000	18.224599 
3509.000000	18.212282 
3508.000000	18.213119 
3507.000000	18.207999 
3506.000000	18.191160 
3505.000000	18.176683 
3504.000000	18.179268 
3503.000000	18.194182 
3502.000000	18.201248 
3501.000000	18.187897 
3500.000000	18.163070 
3499.000000	18.148059 
3498.000000	18.156627 
3497.000000	18.184497 
3496.000000	18.215879 
3495.000000	18.238664 
3494.000000	18.251333 
3493.000000	18.256770 
3492.000000	18.255968 
3491.000000	18.252521 
3490.000000	18.258049 
3489.000000	18.282398 
3488.000000	18.315895 
3487.000000	18.331782 
3486.000000	18.313930 
3485.000000	18.277276 
3484.000000	18.253237 
3483.000000	18.258084 
3482.000000	18.282147 
3481.000000	18.308107 
3480.000000	18.330700 
3479.000000	18.354404 
3478.000000	18.379558 
3477.000000	18.398961 
3476.000000	18.407324 
3475.000000	18.407714 
3474.000000	18.408649 
3473.000000	18.417715 
3472.000000	18.437043 
3471.000000	18.464824 
3470.000000	18.499584 
3469.000000	18.538954 
3468.000000	18.573351 
3467.000000	18.584047 
3466.000000	18.553772 
3465.000000	18.483997 
3464.000000	18.400006 
3463.000000	18.336694 
3462.000000	18.317882 
3461.000000	18.345174 
3460.000000	18.400635 
3459.000000	18.458789 
3458.000000	18.502974 
3457.000000	18.536607 
3456.000000	18.575570 
3455.000000	18.624564 
3454.000000	18.663498 
3453.000000	18.664012 
3452.000000	18.619910 
3451.000000	18.555194 
3450.000000	18.502764 
3449.000000	18.482261 
3448.000000	18.498745 
3447.000000	18.550160 
3446.000000	18.625066 
3445.000000	18.698421 
3444.000000	18.743293 
3443.000000	18.751193 
3442.000000	18.737506 
3441.000000	18.726487 
3440.000000	18.733311 
3439.000000	18.759866 
3438.000000	18.800812 
3437.000000	18.848936 
3436.000000	18.897306 
3435.000000	18.940447 
3434.000000	18.974307 
3433.000000	18.995305 
3432.000000	19.001185 
3431.000000	18.993290 
3430.000000	18.976091 
3429.000000	18.954428 
3428.000000	18.933651 
3427.000000	18.921787 
3426.000000	18.925788 
3425.000000	18.942270 
3424.000000	18.957279 
3423.000000	18.961093 
3422.000000	18.961823 
3421.000000	18.978440 
3420.000000	19.018496 
3419.000000	19.066979 
3418.000000	19.099685 
3417.000000	19.105479 
3416.000000	19.094633 
3415.000000	19.087250 
3414.000000	19.094459 
3413.000000	19.109446 
3412.000000	19.116600 
3411.000000	19.109818 
3410.000000	19.099640 
3409.000000	19.101037 
3408.000000	19.118794 
3407.000000	19.149149 
3406.000000	19.190819 
3405.000000	19.243597 
3404.000000	19.294670 
3403.000000	19.319294 
3402.000000	19.305761 
3401.000000	19.274766 
3400.000000	19.262008 
3399.000000	19.280253 
3398.000000	19.307677 
3397.000000	19.317835 
3396.000000	19.313182 
3395.000000	19.321575 
3394.000000	19.363432 
3393.000000	19.429092 
3392.000000	19.488801 
3391.000000	19.520716 
3390.000000	19.527502 
3389.000000	19.530013 
3388.000000	19.547759 
3387.000000	19.582741 
3386.000000	19.618474 
3385.000000	19.635551 
3384.000000	19.630609 
3383.000000	19.619351 
3382.000000	19.619275 
3381.000000	19.631565 
3380.000000	19.644095 
3379.000000	19.650867 
3378.000000	19.663221 
3377.000000	19.699423 
3376.000000	19.765885 
3375.000000	19.850640 
3374.000000	19.931889 
3373.000000	19.989579 
3372.000000	20.013058 
3371.000000	20.003876 
3370.000000	19.972918 
3369.000000	19.933127 
3368.000000	19.894492 
3367.000000	19.865909 
3366.000000	19.856367 
3365.000000	19.867765 
3364.000000	19.888390 
3363.000000	19.900816 
3362.000000	19.899037 
3361.000000	19.894875 
3360.000000	19.905522 
3359.000000	19.937081 
3358.000000	19.980083 
3357.000000	20.016919 
3356.000000	20.033845 
3355.000000	20.032004 
3354.000000	20.028961 
3353.000000	20.044447 
3352.000000	20.081496 
3351.000000	20.124904 
3350.000000	20.160834 
3349.000000	20.193485 
3348.000000	20.238024 
3347.000000	20.300000 
3346.000000	20.366957 
3345.000000	20.419561 
3344.000000	20.447657 
3343.000000	20.457700 
3342.000000	20.468630 
3341.000000	20.499158 
3340.000000	20.553888 
3339.000000	20.619170 
3338.000000	20.673009 
3337.000000	20.699035 
3336.000000	20.692793 
3335.000000	20.661159 
3334.000000	20.620632 
3333.000000	20.592592 
3332.000000	20.593154 
3331.000000	20.624676 
3330.000000	20.676547 
3329.000000	20.731428 
3328.000000	20.770410 
3327.000000	20.780565 
3326.000000	20.766745 
3325.000000	20.752994 
3324.000000	20.762186 
3323.000000	20.792861 
3322.000000	20.822938 
3321.000000	20.836623 
3320.000000	20.840616 
3319.000000	20.852997 
3318.000000	20.884287 
3317.000000	20.932454 
3316.000000	20.987613 
3315.000000	21.034874 
3314.000000	21.058954 
3313.000000	21.056312 
3312.000000	21.042956 
3311.000000	21.043360 
3310.000000	21.069177 
3309.000000	21.111120 
3308.000000	21.150589 
3307.000000	21.175103 
3306.000000	21.182740 
3305.000000	21.177171 
3304.000000	21.163377 
3303.000000	21.147980 
3302.000000	21.139523 
3301.000000	21.144414 
3300.000000	21.161429 
3299.000000	21.181499 
3298.000000	21.194683 
3297.000000	21.198296 
3296.000000	21.199166 
3295.000000	21.210226 
3294.000000	21.244347 
3293.000000	21.304733 
3292.000000	21.376030 
3291.000000	21.429679 
3290.000000	21.447685 
3289.000000	21.442716 
3288.000000	21.448518 
3287.000000	21.488352 
3286.000000	21.556512 
3285.000000	21.629705 
3284.000000	21.687985 
3283.000000	21.722200 
3282.000000	21.731675 
3281.000000	21.724822 
3280.000000	21.718416 
3279.000000	21.726450 
3278.000000	21.748366 
3277.000000	21.772322 
3276.000000	21.788889 
3275.000000	21.797364 
3274.000000	21.800572 
3273.000000	21.799955 
3272.000000	21.797026 
3271.000000	21.795570 
3270.000000	21.800422 
3269.000000	21.814737 
3268.000000	21.837151 
3267.000000	21.860027 
3266.000000	21.873720 
3265.000000	21.876743 
3264.000000	21.879627 
3263.000000	21.894109 
3262.000000	21.920072 
3261.000000	21.947478 
3260.000000	21.968957 
3259.000000	21.985449 
3258.000000	22.001479 
3257.000000	22.022187 
3256.000000	22.054639 
3255.000000	22.101099 
3254.000000	22.147614 
3253.000000	22.170310 
3252.000000	22.162577 
3251.000000	22.151810 
3250.000000	22.177341 
3249.000000	22.248093 
3248.000000	22.327793 
3247.000000	22.365998 
3246.000000	22.343312 
3245.000000	22.286772 
3244.000000	22.244557 
3243.000000	22.247891 
3242.000000	22.294880 
3241.000000	22.363223 
3240.000000	22.431285 
3239.000000	22.487689 
3238.000000	22.529111 
3237.000000	22.557042 
3236.000000	22.576717 
3235.000000	22.593058 
3234.000000	22.603561 
3233.000000	22.598543 
3232.000000	22.573454 
3231.000000	22.539406 
3230.000000	22.517691 
3229.000000	22.523598 
3228.000000	22.556606 
3227.000000	22.604349 
3226.000000	22.652557 
3225.000000	22.692646 
3224.000000	22.725660 
3223.000000	22.760437 
3222.000000	22.802208 
3221.000000	22.839779 
3220.000000	22.850006 
3219.000000	22.822291 
3218.000000	22.776709 
3217.000000	22.750520 
3216.000000	22.765218 
3215.000000	22.810412 
3214.000000	22.859631 
3213.000000	22.897175 
3212.000000	22.928618 
3211.000000	22.970497 
3210.000000	23.032594 
3209.000000	23.106206 
3208.000000	23.167348 
3207.000000	23.195843 
3206.000000	23.194089 
3205.000000	23.183631 
3204.000000	23.182030 
3203.000000	23.188827 
3202.000000	23.196606 
3201.000000	23.206427 
3200.000000	23.223267 
3199.000000	23.243009 
3198.000000	23.256538 
3197.000000	23.264348 
3196.000000	23.274406 
3195.000000	23.285243 
3194.000000	23.284964 
3193.000000	23.272431 
3192.000000	23.267592 
3191.000000	23.292383 
3190.000000	23.348602 
3189.000000	23.420991 
3188.000000	23.494544 
3187.000000	23.559584 
3186.000000	23.606333 
3185.000000	23.628747 
3184.000000	23.635432 
3183.000000	23.646910 
3182.000000	23.676421 
3181.000000	23.715240 
3180.000000	23.738659 
3179.000000	23.727737 
3178.000000	23.688981 
3177.000000	23.654430 
3176.000000	23.658252 
3175.000000	23.708430 
3174.000000	23.781447 
3173.000000	23.844417 
3172.000000	23.878437 
3171.000000	23.882802 
3170.000000	23.869744 
3169.000000	23.862952 
3168.000000	23.889636 
3167.000000	23.957489 
3166.000000	24.040602 
3165.000000	24.100745 
3164.000000	24.124176 
3163.000000	24.128168 
3162.000000	24.131917 
3161.000000	24.134730 
3160.000000	24.127703 
3159.000000	24.114856 
3158.000000	24.113338 
3157.000000	24.137713 
3156.000000	24.189257 
3155.000000	24.255243 
3154.000000	24.313941 
3153.000000	24.346148 
3152.000000	24.348657 
3151.000000	24.334904 
3150.000000	24.320415 
3149.000000	24.311842 
3148.000000	24.310690 
3147.000000	24.318616 
3146.000000	24.334197 
3145.000000	24.353541 
3144.000000	24.381992 
3143.000000	24.436570 
3142.000000	24.523984 
3141.000000	24.619376 
3140.000000	24.679980 
3139.000000	24.683050 
3138.000000	24.643650 
3137.000000	24.595540 
3136.000000	24.564024 
3135.000000	24.558978 
3134.000000	24.581908 
3133.000000	24.629099 
3132.000000	24.690390 
3131.000000	24.752184 
3130.000000	24.803023 
3129.000000	24.835129 
3128.000000	24.843591 
3127.000000	24.828546 
3126.000000	24.798753 
3125.000000	24.770886 
3124.000000	24.763024 
3123.000000	24.785077 
3122.000000	24.831476 
3121.000000	24.883640 
3120.000000	24.923823 
3119.000000	24.947827 
3118.000000	24.962378 
3117.000000	24.972788 
3116.000000	24.979543 
3115.000000	24.986675 
3114.000000	25.004478 
3113.000000	25.038439 
3112.000000	25.081410 
3111.000000	25.123340 
3110.000000	25.164956 
3109.000000	25.214478 
3108.000000	25.271565 
3107.000000	25.321120 
3106.000000	25.344772 
3105.000000	25.335681 
3104.000000	25.303676 
3103.000000	25.271055 
3102.000000	25.262453 
3101.000000	25.290515 
3100.000000	25.346131 
3099.000000	25.405093 
3098.000000	25.446972 
3097.000000	25.467574 
3096.000000	25.475807 
3095.000000	25.484180 
3094.000000	25.502703 
3093.000000	25.534423 
3092.000000	25.571110 
3091.000000	25.596885 
3090.000000	25.602422 
3089.000000	25.595736 
3088.000000	25.595494 
3087.000000	25.613636 
3086.000000	25.646851 
3085.000000	25.683595 
3084.000000	25.715641 
3083.000000	25.743026 
3082.000000	25.771207 
3081.000000	25.804621 
3080.000000	25.841454 
3079.000000	25.874366 
3078.000000	25.897006 
3077.000000	25.908203 
3076.000000	25.908675 
3075.000000	25.897404 
3074.000000	25.875960 
3073.000000	25.854774 
3072.000000	25.849162 
3071.000000	25.867429 
3070.000000	25.905493 
3069.000000	25.952562 
3068.000000	25.998424 
3067.000000	26.035522 
3066.000000	26.059597 
3065.000000	26.071885 
3064.000000	26.078415 
3063.000000	26.085305 
3062.000000	26.096118 
3061.000000	26.112835 
3060.000000	26.134839 
3059.000000	26.155423 
3058.000000	26.164337 
3057.000000	26.158807 
3056.000000	26.150566 
3055.000000	26.158059 
3054.000000	26.191460 
3053.000000	26.245454 
3052.000000	26.303237 
3051.000000	26.344701 
3050.000000	26.355555 
3049.000000	26.337195 
3048.000000	26.309741 
3047.000000	26.300192 
3046.000000	26.322420 
3045.000000	26.367119 
3044.000000	26.411678 
3043.000000	26.439945 
3042.000000	26.453617 
3041.000000	26.466343 
3040.000000	26.487980 
3039.000000	26.515495 
3038.000000	26.539024 
3037.000000	26.554708 
3036.000000	26.568729 
3035.000000	26.588549 
3034.000000	26.613163 
3033.000000	26.634139 
3032.000000	26.644775 
3031.000000	26.646678 
3030.000000	26.648406 
3029.000000	26.659208 
3028.000000	26.683119 
3027.000000	26.717080 
3026.000000	26.754395 
3025.000000	26.790356 
3024.000000	26.824159 
3023.000000	26.855359 
3022.000000	26.880728 
3021.000000	26.896803 
3020.000000	26.904671 
3019.000000	26.909672 
3018.000000	26.915202 
3017.000000	26.917874 
3016.000000	26.911348 
3015.000000	26.897005 
3014.000000	26.889720 
3013.000000	26.908598 
3012.000000	26.958044 
3011.000000	27.018613 
3010.000000	27.060306 
3009.000000	27.066021 
3008.000000	27.042587 
3007.000000	27.012793 
3006.000000	27.000068 
3005.000000	27.016869 
3004.000000	27.059125 
3003.000000	27.109283 
3002.000000	27.149734 
3001.000000	27.176384 
3000.000000	27.196691 
2999.000000	27.215048 
2998.000000	27.225690 
2997.000000	27.222360 
2996.000000	27.210672 
2995.000000	27.206757 
2994.000000	27.224511 
2993.000000	27.264057 
2992.000000	27.308952 
2991.000000	27.335615 
2990.000000	27.332481 
2989.000000	27.312642 
2988.000000	27.302524 
2987.000000	27.315309 
2986.000000	27.340029 
2985.000000	27.358193 
2984.000000	27.363015 
2983.000000	27.357286 
2982.000000	27.342307 
2981.000000	27.320450 
2980.000000	27.304800 
2979.000000	27.313437 
2978.000000	27.350342 
2977.000000	27.398207 
2976.000000	27.432567 
2975.000000	27.440463 
2974.000000	27.426136 
2973.000000	27.403792 
2972.000000	27.385947 
2971.000000	27.375561 
2970.000000	27.368212 
2969.000000	27.362096 
2968.000000	27.362625 
2967.000000	27.374356 
2966.000000	27.392090 
2965.000000	27.405015 
2964.000000	27.407432 
2963.000000	27.401004 
2962.000000	27.389580 
2961.000000	27.377737 
2960.000000	27.372017 
2959.000000	27.376154 
2958.000000	27.384836 
2957.000000	27.388045 
2956.000000	27.382974 
2955.000000	27.378678 
2954.000000	27.389555 
2953.000000	27.425787 
2952.000000	27.484930 
2951.000000	27.546940 
2950.000000	27.582547 
2949.000000	27.577766 
2948.000000	27.550558 
2947.000000	27.534785 
2946.000000	27.545650 
2945.000000	27.567793 
2944.000000	27.577792 
2943.000000	27.568945 
2942.000000	27.550937 
2941.000000	27.533903 
2940.000000	27.520144 
2939.000000	27.507481 
2938.000000	27.494695 
2937.000000	27.484508 
2936.000000	27.483413 
2935.000000	27.495973 
2934.000000	27.517154 
2933.000000	27.533000 
2932.000000	27.530886 
2931.000000	27.507403 
2930.000000	27.467227 
2929.000000	27.420329 
2928.000000	27.381487 
2927.000000	27.364978 
2926.000000	27.373687 
2925.000000	27.396551 
2924.000000	27.421032 
2923.000000	27.445101 
2922.000000	27.473391 
2921.000000	27.506088 
2920.000000	27.538735 
2919.000000	27.571668 
2918.000000	27.611999 
2917.000000	27.663138 
2916.000000	27.716971 
2915.000000	27.761407 
2914.000000	27.795209 
2913.000000	27.831072 
2912.000000	27.881363 
2911.000000	27.942518 
2910.000000	27.997122 
2909.000000	28.031303 
2908.000000	28.046764 
2907.000000	28.055046 
2906.000000	28.065928 
2905.000000	28.085558 
2904.000000	28.120241 
2903.000000	28.172726 
2902.000000	28.233660 
2901.000000	28.283423 
2900.000000	28.306298 
2899.000000	28.302277 
2898.000000	28.286552 
2897.000000	28.280357 
2896.000000	28.298594 
2895.000000	28.338408 
2894.000000	28.378630 
2893.000000	28.397195 
2892.000000	28.392189 
2891.000000	28.381718 
2890.000000	28.382522 
2889.000000	28.395810 
2888.000000	28.416395 
2887.000000	28.446692 
2886.000000	28.492568 
2885.000000	28.548273 
2884.000000	28.594549 
2883.000000	28.614306 
2882.000000	28.607000 
2881.000000	28.586444 
2880.000000	28.567273 
2879.000000	28.554858 
2878.000000	28.546970 
2877.000000	28.542561 
2876.000000	28.546550 
2875.000000	28.564994 
2874.000000	28.597592 
2873.000000	28.637713 
2872.000000	28.677857 
2871.000000	28.710358 
2870.000000	28.724164 
2869.000000	28.709656 
2868.000000	28.671689 
2867.000000	28.631768 
2866.000000	28.609669 
2865.000000	28.604535 
2864.000000	28.600018 
2863.000000	28.587120 
2862.000000	28.575089 
2861.000000	28.578682 
2860.000000	28.601194 
2859.000000	28.633451 
2858.000000	28.664024 
2857.000000	28.684612 
2856.000000	28.688175 
2855.000000	28.669836 
2854.000000	28.633180 
2853.000000	28.593246 
2852.000000	28.570148 
2851.000000	28.578415 
2850.000000	28.620242 
2849.000000	28.685248 
2848.000000	28.755955 
2847.000000	28.817180 
2846.000000	28.864289 
2845.000000	28.903094 
2844.000000	28.942423 
2843.000000	28.988815 
2842.000000	29.047337 
2841.000000	29.119877 
2840.000000	29.196766 
2839.000000	29.255015 
2838.000000	29.275059 
2837.000000	29.261084 
2836.000000	29.238173 
2835.000000	29.228197 
2834.000000	29.234805 
2833.000000	29.252549 
2832.000000	29.279510 
2831.000000	29.314616 
2830.000000	29.351129 
2829.000000	29.382674 
2828.000000	29.411871 
2827.000000	29.444284 
2826.000000	29.476175 
2825.000000	29.496599 
2824.000000	29.500935 
2823.000000	29.495258 
2822.000000	29.488051 
2821.000000	29.484520 
2820.000000	29.487945 
2819.000000	29.498472 
2818.000000	29.510307 
2817.000000	29.518666 
2816.000000	29.531900 
2815.000000	29.567845 
2814.000000	29.631736 
2813.000000	29.702493 
2812.000000	29.747248 
2811.000000	29.749618 
2810.000000	29.722331 
2809.000000	29.694300 
2808.000000	29.686385 
2807.000000	29.696242 
2806.000000	29.703727 
2805.000000	29.692343 
2804.000000	29.666535 
2803.000000	29.646529 
2802.000000	29.646938 
2801.000000	29.664134 
2800.000000	29.685501 
2799.000000	29.705949 
2798.000000	29.730862 
2797.000000	29.764166 
2796.000000	29.797629 
2795.000000	29.814249 
2794.000000	29.803152 
2793.000000	29.771600 
2792.000000	29.741342 
2791.000000	29.732124 
2790.000000	29.749341 
2789.000000	29.786997 
2788.000000	29.836873 
2787.000000	29.889933 
2786.000000	29.932915 
2785.000000	29.952383 
2784.000000	29.945249 
2783.000000	29.921640 
2782.000000	29.896525 
2781.000000	29.880970 
2780.000000	29.879459 
2779.000000	29.890222 
2778.000000	29.907573 
2777.000000	29.928051 
2776.000000	29.953414 
2775.000000	29.982640 
2774.000000	30.003057 
2773.000000	29.998502 
2772.000000	29.968845 
2771.000000	29.934338 
2770.000000	29.917079 
2769.000000	29.923415 
2768.000000	29.945653 
2767.000000	29.972310 
2766.000000	29.991644 
2765.000000	29.993740 
2764.000000	29.979056 
2763.000000	29.962142 
2762.000000	29.958773 
2761.000000	29.970004 
2760.000000	29.984470 
2759.000000	29.994409 
2758.000000	30.002700 
2757.000000	30.015189 
2756.000000	30.034254 
2755.000000	30.061472 
2754.000000	30.098655 
2753.000000	30.140967 
2752.000000	30.173480 
2751.000000	30.181320 
2750.000000	30.164110 
2749.000000	30.137853 
2748.000000	30.121733 
2747.000000	30.123017 
2746.000000	30.133004 
2745.000000	30.135687 
2744.000000	30.121181 
2743.000000	30.093763 
2742.000000	30.068595 
2741.000000	30.060237 
2740.000000	30.072940 
2739.000000	30.100129 
2738.000000	30.131316 
2737.000000	30.158964 
2736.000000	30.181395 
2735.000000	30.202169 
2734.000000	30.226248 
2733.000000	30.253607 
2732.000000	30.275918 
2731.000000	30.283107 
2730.000000	30.275328 
2729.000000	30.265610 
2728.000000	30.267634 
2727.000000	30.283281 
2726.000000	30.305010 
2725.000000	30.325783 
2724.000000	30.339900 
2723.000000	30.337469 
2722.000000	30.309920 
2721.000000	30.265285 
2720.000000	30.229681 
2719.000000	30.226071 
2718.000000	30.253488 
2717.000000	30.290410 
2716.000000	30.314631 
2715.000000	30.317800 
2714.000000	30.307813 
2713.000000	30.304070 
2712.000000	30.325672 
2711.000000	30.375177 
2710.000000	30.433734 
2709.000000	30.477684 
2708.000000	30.499418 
2707.000000	30.508280 
2706.000000	30.514630 
2705.000000	30.519818 
2704.000000	30.519888 
2703.000000	30.511420 
2702.000000	30.492535 
2701.000000	30.464033 
2700.000000	30.431319 
2699.000000	30.401624 
2698.000000	30.378712 
2697.000000	30.362939 
2696.000000	30.355005 
2695.000000	30.355605 
2694.000000	30.362787 
2693.000000	30.374413 
2692.000000	30.392120 
2691.000000	30.417542 
2690.000000	30.445294 
2689.000000	30.465454 
2688.000000	30.473865 
2687.000000	30.475985 
2686.000000	30.480581 
2685.000000	30.492856 
2684.000000	30.511439 
2683.000000	30.527136 
2682.000000	30.527923 
2681.000000	30.513085 
2680.000000	30.500896 
2679.000000	30.512939 
2678.000000	30.550044 
2677.000000	30.591811 
2676.000000	30.620517 
2675.000000	30.635777 
2674.000000	30.643012 
2673.000000	30.639392 
2672.000000	30.619804 
2671.000000	30.589435 
2670.000000	30.560761 
2669.000000	30.540962 
2668.000000	30.529932 
2667.000000	30.528737 
2666.000000	30.542069 
2665.000000	30.570738 
2664.000000	30.606643 
2663.000000	30.637626 
2662.000000	30.656113 
2661.000000	30.662978 
2660.000000	30.664124 
2659.000000	30.663194 
2658.000000	30.657338 
2657.000000	30.641123 
2656.000000	30.614735 
2655.000000	30.586939 
2654.000000	30.569505 
2653.000000	30.569271 
2652.000000	30.584586 
2651.000000	30.607295 
2650.000000	30.628758 
2649.000000	30.646131 
2648.000000	30.662431 
2647.000000	30.679323 
2646.000000	30.692798 
2645.000000	30.699878 
2644.000000	30.706544 
2643.000000	30.722147 
2642.000000	30.745911 
2641.000000	30.765463 
2640.000000	30.770698 
2639.000000	30.763984 
2638.000000	30.754920 
2637.000000	30.749891 
2636.000000	30.748717 
2635.000000	30.746919 
2634.000000	30.739428 
2633.000000	30.727275 
2632.000000	30.723026 
2631.000000	30.743187 
2630.000000	30.789194 
2629.000000	30.838764 
2628.000000	30.862388 
2627.000000	30.850169 
2626.000000	30.820752 
2625.000000	30.803391 
2624.000000	30.811015 
2623.000000	30.829287 
2622.000000	30.831772 
2621.000000	30.807089 
2620.000000	30.770634 
2619.000000	30.748155 
2618.000000	30.750169 
2617.000000	30.766379 
2616.000000	30.782778 
2615.000000	30.796770 
2614.000000	30.813577 
2613.000000	30.834004 
2612.000000	30.850755 
2611.000000	30.855620 
2610.000000	30.848088 
2609.000000	30.837083 
2608.000000	30.833830 
2607.000000	30.842089 
2606.000000	30.857084 
2605.000000	30.874986 
2604.000000	30.898425 
2603.000000	30.928036 
2602.000000	30.954080 
2601.000000	30.965451 
2600.000000	30.964821 
2599.000000	30.964746 
2598.000000	30.968859 
2597.000000	30.967604 
2596.000000	30.954243 
2595.000000	30.933822 
2594.000000	30.912229 
2593.000000	30.887750 
2592.000000	30.861013 
2591.000000	30.843889 
2590.000000	30.847960 
2589.000000	30.868443 
2588.000000	30.888163 
2587.000000	30.895683 
2586.000000	30.894129 
2585.000000	30.894854 
2584.000000	30.907125 
2583.000000	30.930556 
2582.000000	30.952782 
2581.000000	30.958446 
2580.000000	30.945925 
2579.000000	30.931674 
2578.000000	30.933043 
2577.000000	30.950948 
2576.000000	30.974715 
2575.000000	30.997888 
2574.000000	31.019862 
2573.000000	31.035041 
2572.000000	31.032128 
2571.000000	31.007499 
2570.000000	30.972931 
2569.000000	30.947014 
2568.000000	30.941547 
2567.000000	30.955962 
2566.000000	30.980916 
2565.000000	31.006810 
2564.000000	31.031604 
2563.000000	31.059578 
2562.000000	31.090043 
2561.000000	31.110626 
2560.000000	31.107511 
2559.000000	31.081079 
2558.000000	31.046193 
2557.000000	31.018797 
2556.000000	31.008563 
2555.000000	31.022261 
2554.000000	31.062749 
2553.000000	31.119135 
2552.000000	31.165411 
2551.000000	31.177906 
2550.000000	31.154841 
2549.000000	31.116311 
2548.000000	31.086574 
2547.000000	31.077928 
2546.000000	31.087720 
2545.000000	31.104603 
2544.000000	31.116258 
2543.000000	31.115270 
2542.000000	31.102162 
2541.000000	31.084693 
2540.000000	31.073435 
2539.000000	31.075453 
2538.000000	31.089471 
2537.000000	31.106115 
2536.000000	31.113940 
2535.000000	31.107154 
2534.000000	31.089143 
2533.000000	31.069325 
2532.000000	31.055714 
2531.000000	31.049035 
2530.000000	31.044273 
2529.000000	31.039403 
2528.000000	31.041521 
2527.000000	31.060258 
2526.000000	31.093350 
2525.000000	31.122779 
2524.000000	31.130096 
2523.000000	31.114784 
2522.000000	31.093713 
2521.000000	31.083032 
2520.000000	31.084490 
2519.000000	31.089021 
2518.000000	31.088113 
2517.000000	31.079210 
2516.000000	31.065203 
2515.000000	31.054715 
2514.000000	31.061315 
2513.000000	31.094589 
2512.000000	31.146915 
2511.000000	31.192411 
2510.000000	31.206100 
2509.000000	31.186975 
2508.000000	31.159259 
2507.000000	31.147771 
2506.000000	31.153257 
2505.000000	31.155003 
2504.000000	31.136455 
2503.000000	31.103759 
2502.000000	31.078537 
2501.000000	31.076714 
2500.000000	31.096526 
2499.000000	31.123534 
2498.000000	31.143383 
2497.000000	31.151317 
2496.000000	31.153245 
2495.000000	31.157679 
2494.000000	31.164877 
2493.000000	31.165627 
2492.000000	31.153825 
2491.000000	31.138290 
2490.000000	31.136345 
2489.000000	31.154694 
2488.000000	31.181767 
2487.000000	31.201576 
2486.000000	31.211011 
2485.000000	31.219869 
2484.000000	31.237383 
2483.000000	31.263236 
2482.000000	31.289049 
2481.000000	31.303099 
2480.000000	31.295384 
2479.000000	31.265609 
2478.000000	31.227849 
2477.000000	31.200986 
2476.000000	31.191271 
2475.000000	31.188777 
2474.000000	31.183464 
2473.000000	31.178682 
2472.000000	31.183623 
2471.000000	31.197330 
2470.000000	31.207599 
2469.000000	31.204371 
2468.000000	31.188206 
2467.000000	31.166817 
2466.000000	31.149771 
2465.000000	31.145845 
2464.000000	31.157523 
2463.000000	31.175380 
2462.000000	31.183853 
2461.000000	31.176193 
2460.000000	31.160603 
2459.000000	31.150125 
2458.000000	31.150752 
2457.000000	31.161102 
2456.000000	31.178133 
2455.000000	31.199151 
2454.000000	31.221842 
2453.000000	31.245935 
2452.000000	31.271672 
2451.000000	31.293238 
2450.000000	31.297339 
2449.000000	31.273561 
2448.000000	31.225776 
2447.000000	31.171281 
2446.000000	31.130305 
2445.000000	31.116416 
2444.000000	31.131365 
2443.000000	31.164445 
2442.000000	31.199328 
2441.000000	31.225265 
2440.000000	31.240368 
2439.000000	31.243481 
2438.000000	31.229101 
2437.000000	31.196394 
2436.000000	31.159699 
2435.000000	31.141803 
2434.000000	31.154250 
2433.000000	31.186513 
2432.000000	31.214840 
2431.000000	31.220958 
2430.000000	31.204974 
2429.000000	31.183738 
2428.000000	31.175753 
2427.000000	31.184621 
2426.000000	31.197535 
2425.000000	31.200956 
2424.000000	31.194817 
2423.000000	31.188388 
2422.000000	31.185320 
2421.000000	31.178370 
2420.000000	31.159763 
2419.000000	31.133658 
2418.000000	31.115572 
2417.000000	31.117474 
2416.000000	31.132541 
2415.000000	31.138132 
2414.000000	31.118824 
2413.000000	31.084794 
2412.000000	31.060316 
2411.000000	31.054475 
2410.000000	31.053249 
2409.000000	31.043701 
2408.000000	31.034721 
2407.000000	31.044639 
2406.000000	31.075398 
2405.000000	31.109906 
2404.000000	31.132480 
2403.000000	31.142655 
2402.000000	31.149058 
2401.000000	31.157138 
2400.000000	31.163607 
2399.000000	31.158099 
2398.000000	31.131527 
2397.000000	31.087845 
2396.000000	31.045859 
2395.000000	31.023554 
2394.000000	31.021420 
2393.000000	31.025550 
2392.000000	31.024412 
2391.000000	31.017448 
2390.000000	31.011041 
2389.000000	31.013334 
2388.000000	31.029973 
2387.000000	31.055332 
2386.000000	31.067889 
2385.000000	31.044100 
2384.000000	30.982162 
2383.000000	30.908148 
2382.000000	30.855461 
2381.000000	30.839649 
2380.000000	30.852048 
2379.000000	30.872192 
2378.000000	30.882513 
2377.000000	30.873584 
2376.000000	30.841990 
2375.000000	30.790174 
2374.000000	30.735500 
2373.000000	30.715442 
2372.000000	30.762064 
2371.000000	30.856668 
2370.000000	30.927433 
2369.000000	30.918559 
2368.000000	30.850634 
2367.000000	30.781692 
2366.000000	30.725399 
2365.000000	30.658380 
2364.000000	30.597017 
2363.000000	30.594701 
2362.000000	30.659378 
2361.000000	30.753689 
2360.000000	30.867729 
2359.000000	30.998886 
2358.000000	31.074465 
2357.000000	30.989591 
2356.000000	30.755105 
2355.000000	30.521868 
2354.000000	30.423118 
2353.000000	30.461257 
2352.000000	30.543074 
2351.000000	30.594574 
2350.000000	30.607640 
2349.000000	30.600666 
2348.000000	30.589925 
2347.000000	30.580465 
2346.000000	30.574315 
2345.000000	30.564768 
2344.000000	30.549741 
2343.000000	30.540019 
2342.000000	30.524118 
2341.000000	30.483079 
2340.000000	30.423937 
2339.000000	30.384832 
2338.000000	30.384177 
2337.000000	30.397111 
2336.000000	30.397724 
2335.000000	30.394647 
2334.000000	30.413128 
2333.000000	30.465735 
2332.000000	30.543721 
2331.000000	30.620466 
2330.000000	30.656930 
2329.000000	30.624434 
2328.000000	30.548357 
2327.000000	30.477004 
2326.000000	30.436896 
2325.000000	30.412078 
2324.000000	30.386500 
2323.000000	30.374960 
2322.000000	30.393303 
2321.000000	30.436208 
2320.000000	30.479736 
2319.000000	30.509397 
2318.000000	30.516524 
2317.000000	30.491841 
2316.000000	30.435672 
2315.000000	30.364965 
2314.000000	30.306249 
2313.000000	30.276888 
2312.000000	30.285582 
2311.000000	30.331604 
2310.000000	30.402383 
2309.000000	30.466203 
2308.000000	30.489110 
2307.000000	30.458872 
2306.000000	30.396980 
2305.000000	30.340701 
2304.000000	30.314149 
2303.000000	30.313239 
2302.000000	30.317648 
2301.000000	30.315375 
2300.000000	30.313125 
2299.000000	30.320698 
2298.000000	30.336250 
2297.000000	30.350198 
2296.000000	30.360487 
2295.000000	30.368981 
2294.000000	30.370805 
2293.000000	30.356190 
2292.000000	30.326781 
2291.000000	30.296772 
2290.000000	30.277344 
2289.000000	30.268062 
2288.000000	30.264244 
2287.000000	30.262866 
2286.000000	30.258531 
2285.000000	30.245472 
2284.000000	30.226789 
2283.000000	30.212589 
2282.000000	30.203657 
2281.000000	30.188306 
2280.000000	30.161445 
2279.000000	30.138147 
2278.000000	30.138240 
2277.000000	30.164146 
2276.000000	30.201365 
2275.000000	30.234645 
2274.000000	30.254987 
2273.000000	30.256193 
2272.000000	30.236102 
2271.000000	30.199680 
2270.000000	30.155437 
2269.000000	30.111031 
2268.000000	30.075456 
2267.000000	30.057736 
2266.000000	30.056247 
2265.000000	30.056335 
2264.000000	30.047672 
2263.000000	30.037093 
2262.000000	30.034846 
2261.000000	30.035343 
2260.000000	30.025973 
2259.000000	30.010853 
2258.000000	30.008320 
2257.000000	30.023727 
2256.000000	30.038346 
2255.000000	30.030917 
2254.000000	29.999343 
2253.000000	29.957521 
2252.000000	29.921422 
2251.000000	29.903065 
2250.000000	29.907300 
2249.000000	29.924987 
2248.000000	29.936771 
2247.000000	29.932083 
2246.000000	29.919652 
2245.000000	29.911910 
2244.000000	29.905940 
2243.000000	29.890744 
2242.000000	29.869774 
2241.000000	29.861423 
2240.000000	29.872716 
2239.000000	29.883501 
2238.000000	29.866294 
2237.000000	29.818696 
2236.000000	29.768814 
2235.000000	29.748389 
2234.000000	29.764430 
2233.000000	29.796573 
2232.000000	29.817206 
2231.000000	29.812249 
2230.000000	29.785914 
2229.000000	29.750752 
2228.000000	29.715715 
2227.000000	29.682627 
2226.000000	29.651214 
2225.000000	29.624794 
2224.000000	29.609992 
2223.000000	29.611096 
2222.000000	29.624692 
2221.000000	29.639606 
2220.000000	29.643859 
2219.000000	29.634262 
2218.000000	29.618774 
2217.000000	29.606716 
2216.000000	29.597446 
2215.000000	29.583460 
2214.000000	29.565103 
2213.000000	29.554657 
2212.000000	29.560534 
2211.000000	29.573634 
2210.000000	29.577648 
2209.000000	29.569129 
2208.000000	29.557758 
2207.000000	29.548590 
2206.000000	29.535755 
2205.000000	29.515616 
2204.000000	29.494116 
2203.000000	29.475303 
2202.000000	29.453552 
2201.000000	29.426288 
2200.000000	29.406129 
2199.000000	29.408661 
2198.000000	29.431386 
2197.000000	29.454652 
2196.000000	29.461970 
2195.000000	29.451331 
2194.000000	29.428544 
2193.000000	29.399815 
2192.000000	29.372538 
2191.000000	29.354230 
2190.000000	29.345254 
2189.000000	29.336259 
2188.000000	29.316627 
2187.000000	29.285235 
2186.000000	29.253546 
2185.000000	29.239199 
2184.000000	29.252884 
2183.000000	29.286708 
2182.000000	29.316925 
2181.000000	29.322831 
2180.000000	29.303465 
2179.000000	29.274390 
2178.000000	29.251539 
2177.000000	29.241403 
2176.000000	29.241461 
2175.000000	29.242636 
2174.000000	29.233670 
2173.000000	29.210509 
2172.000000	29.181011 
2171.000000	29.155435 
2170.000000	29.135283 
2169.000000	29.118251 
2168.000000	29.109953 
2167.000000	29.119324 
2166.000000	29.141830 
2165.000000	29.157822 
2164.000000	29.151572 
2163.000000	29.125567 
2162.000000	29.093893 
2161.000000	29.068461 
2160.000000	29.054112 
2159.000000	29.049540 
2158.000000	29.047813 
2157.000000	29.040120 
2156.000000	29.023068 
2155.000000	29.000596 
2154.000000	28.978721 
2153.000000	28.962365 
2152.000000	28.956199 
2151.000000	28.961536 
2150.000000	28.971009 
2149.000000	28.972976 
2148.000000	28.963781 
2147.000000	28.950671 
2146.000000	28.941688 
2145.000000	28.938895 
2144.000000	28.942292 
2143.000000	28.951923 
2142.000000	28.962428 
2141.000000	28.963217 
2140.000000	28.949904 
2139.000000	28.930595 
2138.000000	28.916296 
2137.000000	28.909533 
2136.000000	28.905730 
2135.000000	28.900182 
2134.000000	28.889658 
2133.000000	28.873309 
2132.000000	28.857893 
2131.000000	28.856964 
2130.000000	28.877499 
2129.000000	28.909224 
2128.000000	28.932597 
2127.000000	28.935736 
2126.000000	28.919774 
2125.000000	28.891797 
2124.000000	28.859218 
2123.000000	28.828825 
2122.000000	28.804245 
2121.000000	28.784214 
2120.000000	28.768368 
2119.000000	28.763894 
2118.000000	28.779809 
2117.000000	28.812605 
2116.000000	28.842905 
2115.000000	28.850855 
2114.000000	28.833755 
2113.000000	28.806567 
2112.000000	28.786324 
2111.000000	28.777984 
2110.000000	28.774568 
2109.000000	28.767973 
2108.000000	28.757993 
2107.000000	28.751733 
2106.000000	28.755929 
2105.000000	28.769807 
2104.000000	28.783797 
2103.000000	28.784738 
2102.000000	28.765126 
2101.000000	28.730384 
2100.000000	28.696378 
2099.000000	28.676821 
2098.000000	28.671717 
2097.000000	28.668343 
2096.000000	28.652767 
2095.000000	28.620693 
2094.000000	28.580634 
2093.000000	28.548846 
2092.000000	28.538042 
2091.000000	28.546607 
2090.000000	28.560003 
2089.000000	28.567109 
2088.000000	28.573501 
2087.000000	28.591792 
2086.000000	28.618679 
2085.000000	28.630519 
2084.000000	28.608570 
2083.000000	28.564458 
2082.000000	28.531854 
2081.000000	28.531057 
2080.000000	28.547251 
2079.000000	28.547926 
2078.000000	28.518219 
2077.000000	28.473188 
2076.000000	28.435865 
2075.000000	28.411708 
2074.000000	28.390566 
2073.000000	28.366481 
2072.000000	28.345074 
2071.000000	28.332120 
2070.000000	28.324946 
2069.000000	28.318531 
2068.000000	28.311530 
2067.000000	28.301350 
2066.000000	28.280344 
2065.000000	28.243748 
2064.000000	28.196766 
2063.000000	28.147988 
2062.000000	28.100968 
2061.000000	28.058117 
2060.000000	28.026037 
2059.000000	28.008175 
2058.000000	27.996604 
2057.000000	27.980098 
2056.000000	27.957557 
2055.000000	27.935286 
2054.000000	27.914449 
2053.000000	27.890754 
2052.000000	27.864083 
2051.000000	27.836886 
2050.000000	27.803078 
2049.000000	27.751352 
2048.000000	27.683752 
2047.000000	27.620696 
2046.000000	27.581722 
2045.000000	27.567555 
2044.000000	27.563589 
2043.000000	27.553057 
2042.000000	27.523511 
2041.000000	27.470442 
2040.000000	27.402845 
2039.000000	27.339833 
2038.000000	27.294425 
2037.000000	27.262534 
2036.000000	27.231200 
2035.000000	27.194048 
2034.000000	27.154673 
2033.000000	27.118802 
2032.000000	27.088699 
2031.000000	27.063132 
2030.000000	27.037077 
2029.000000	27.001326 
2028.000000	26.947653 
2027.000000	26.876490 
2026.000000	26.798143 
2025.000000	26.724939 
2024.000000	26.662617 
2023.000000	26.609025 
2022.000000	26.558643 
2021.000000	26.506838 
2020.000000	26.449836 
2019.000000	26.384115 
2018.000000	26.310749 
2017.000000	26.240833 
2016.000000	26.189893 
2015.000000	26.161814 
2014.000000	26.142398 
2013.000000	26.112942 
2012.000000	26.066441 
2011.000000	26.006598 
2010.000000	25.936202 
2009.000000	25.856185 
2008.000000	25.775097 
2007.000000	25.706513 
2006.000000	25.651333 
2005.000000	25.591191 
2004.000000	25.509186 
2003.000000	25.414425 
2002.000000	25.336434 
2001.000000	25.294920 
2000.000000	25.280414 
1999.000000	25.267645 
1998.000000	25.240852 
1997.000000	25.199530 
1996.000000	25.146858 
1995.000000	25.083958 
1994.000000	25.016833 
1993.000000	24.959890 
1992.000000	24.924780 
1991.000000	24.906373 
1990.000000	24.886622 
1989.000000	24.851691 
1988.000000	24.800142 
1987.000000	24.737820 
1986.000000	24.670903 
1985.000000	24.602997 
1984.000000	24.534290 
1983.000000	24.463509 
1982.000000	24.394192 
1981.000000	24.337499 
1980.000000	24.300936 
1979.000000	24.275114 
1978.000000	24.240517 
1977.000000	24.190486 
1976.000000	24.139750 
1975.000000	24.103479 
1974.000000	24.075142 
1973.000000	24.034327 
1972.000000	23.973314 
1971.000000	23.905445 
1970.000000	23.847010 
1969.000000	23.800964 
1968.000000	23.762288 
1967.000000	23.730862 
1966.000000	23.710934 
1965.000000	23.700144 
1964.000000	23.685946 
1963.000000	23.654734 
1962.000000	23.603765 
1961.000000	23.544337 
1960.000000	23.491940 
1959.000000	23.452328 
1958.000000	23.418390 
1957.000000	23.380796 
1956.000000	23.338541 
1955.000000	23.297584 
1954.000000	23.262776 
1953.000000	23.233897 
1952.000000	23.208451 
1951.000000	23.184650 
1950.000000	23.163271 
1949.000000	23.148141 
1948.000000	23.139661 
1947.000000	23.127952 
1946.000000	23.099997 
1945.000000	23.057933 
1944.000000	23.023011 
1943.000000	23.012130 
1942.000000	23.012647 
1941.000000	22.993276 
1940.000000	22.940675 
1939.000000	22.870588 
1938.000000	22.806259 
1937.000000	22.759100 
1936.000000	22.727660 
1935.000000	22.705156 
1934.000000	22.683644 
1933.000000	22.656264 
1932.000000	22.622181 
1931.000000	22.586957 
1930.000000	22.557138 
1929.000000	22.535819 
1928.000000	22.519622 
1927.000000	22.500590 
1926.000000	22.471657 
1925.000000	22.436086 
1924.000000	22.409745 
1923.000000	22.405562 
1922.000000	22.415523 
1921.000000	22.415108 
1920.000000	22.387581 
1919.000000	22.337873 
1918.000000	22.286739 
1917.000000	22.252804 
1916.000000	22.237268 
1915.000000	22.228474 
1914.000000	22.215987 
1913.000000	22.196081 
1912.000000	22.170214 
1911.000000	22.140797 
1910.000000	22.109287 
1909.000000	22.075948 
1908.000000	22.038466 
1907.000000	21.996781 
1906.000000	21.959376 
1905.000000	21.941784 
1904.000000	21.951719 
1903.000000	21.975554 
1902.000000	21.990432 
1901.000000	21.986595 
1900.000000	21.968628 
1899.000000	21.938756 
1898.000000	21.891243 
1897.000000	21.828917 
1896.000000	21.772962 
1895.000000	21.743123 
1894.000000	21.734811 
1893.000000	21.725702 
1892.000000	21.700643 
1891.000000	21.661712 
1890.000000	21.620794 
1889.000000	21.589336 
1888.000000	21.570944 
1887.000000	21.561284 
1886.000000	21.554966 
1885.000000	21.550240 
1884.000000	21.544707 
1883.000000	21.528355 
1882.000000	21.491180 
1881.000000	21.439688 
1880.000000	21.393798 
1879.000000	21.363361 
1878.000000	21.336798 
1877.000000	21.301157 
1876.000000	21.264245 
1875.000000	21.242064 
1874.000000	21.232496 
1873.000000	21.218837 
1872.000000	21.194682 
1871.000000	21.170087 
1870.000000	21.154511 
1869.000000	21.145641 
1868.000000	21.135217 
1867.000000	21.118215 
1866.000000	21.094155 
1865.000000	21.065087 
1864.000000	21.036596 
1863.000000	21.014324 
1862.000000	20.996118 
1861.000000	20.974640 
1860.000000	20.948537 
1859.000000	20.922314 
1858.000000	20.895548 
1857.000000	20.863801 
1856.000000	20.831482 
1855.000000	20.810885 
1854.000000	20.803615 
1853.000000	20.794846 
1852.000000	20.771399 
1851.000000	20.741138 
1850.000000	20.722152 
1849.000000	20.716571 
1848.000000	20.709094 
1847.000000	20.687945 
1846.000000	20.657449 
1845.000000	20.630107 
1844.000000	20.614808 
1843.000000	20.607108 
1842.000000	20.594449 
1841.000000	20.571438 
1840.000000	20.542763 
1839.000000	20.518490 
1838.000000	20.503831 
1837.000000	20.492371 
1836.000000	20.473832 
1835.000000	20.446139 
1834.000000	20.415098 
1833.000000	20.384391 
1832.000000	20.354808 
1831.000000	20.334541 
1830.000000	20.336042 
1829.000000	20.353002 
1828.000000	20.362178 
1827.000000	20.352354 
1826.000000	20.330575 
1825.000000	20.309559 
1824.000000	20.298268 
1823.000000	20.295931 
1822.000000	20.293615 
1821.000000	20.281372 
1820.000000	20.257892 
1819.000000	20.234246 
1818.000000	20.221048 
1817.000000	20.215852 
1816.000000	20.206905 
1815.000000	20.187317 
1814.000000	20.163612 
1813.000000	20.147139 
1812.000000	20.144001 
1811.000000	20.151857 
1810.000000	20.163062 
1809.000000	20.172875 
1808.000000	20.178901 
1807.000000	20.176417 
1806.000000	20.161216 
1805.000000	20.134782 
1804.000000	20.103994 
1803.000000	20.075999 
1802.000000	20.056208 
1801.000000	20.044331 
1800.000000	20.033508 
1799.000000	20.016483 
1798.000000	19.992823 
1797.000000	19.969165 
1796.000000	19.950156 
1795.000000	19.936036 
1794.000000	19.930034 
1793.000000	19.940914 
1792.000000	19.971333 
1791.000000	20.004181 
1790.000000	20.021206 
1789.000000	20.023299 
1788.000000	20.015410 
1787.000000	19.996354 
1786.000000	19.969827 
1785.000000	19.952287 
1784.000000	19.956652 
1783.000000	19.973619 
1782.000000	19.986054 
1781.000000	19.987229 
1780.000000	19.983116 
1779.000000	19.980582 
1778.000000	19.977725 
1777.000000	19.971825 
1776.000000	19.965074 
1775.000000	19.963801 
1774.000000	19.970833 
1773.000000	19.979968 
1772.000000	19.981081 
1771.000000	19.968837 
1770.000000	19.951400 
1769.000000	19.945311 
1768.000000	19.955480 
1767.000000	19.966037 
1766.000000	19.957774 
1765.000000	19.930520 
1764.000000	19.901634 
1763.000000	19.886585 
1762.000000	19.888191 
1761.000000	19.898999 
1760.000000	19.915808 
1759.000000	19.938989 
1758.000000	19.958883 
1757.000000	19.958551 
1756.000000	19.931399 
1755.000000	19.891065 
1754.000000	19.850860 
1753.000000	19.808689 
1752.000000	19.759767 
1751.000000	19.715459 
1750.000000	19.690821 
1749.000000	19.684621 
1748.000000	19.686148 
1747.000000	19.685148 
1746.000000	19.674400 
1745.000000	19.653090 
1744.000000	19.636155 
1743.000000	19.642488 
1742.000000	19.668334 
1741.000000	19.688921 
1740.000000	19.687814 
1739.000000	19.669643 
1738.000000	19.645474 
1737.000000	19.622522 
1736.000000	19.605821 
1735.000000	19.597407 
1734.000000	19.598581 
1733.000000	19.593848 
1732.000000	19.575286 
1731.000000	19.568426 
1730.000000	19.588373 
1729.000000	19.615955 
1728.000000	19.624202 
1727.000000	19.612959 
1726.000000	19.602973 
1725.000000	19.604768 
1724.000000	19.612948 
1723.000000	19.616014 
1722.000000	19.606947 
1721.000000	19.590674 
1720.000000	19.578323 
1719.000000	19.573190 
1718.000000	19.562101 
1717.000000	19.532816 
1716.000000	19.501399 
1715.000000	19.492805 
1714.000000	19.501580 
1713.000000	19.499422 
1712.000000	19.471847 
1711.000000	19.434410 
1710.000000	19.413786 
1709.000000	19.416963 
1708.000000	19.423918 
1707.000000	19.413679 
1706.000000	19.386266 
1705.000000	19.359957 
1704.000000	19.348022 
1703.000000	19.347959 
1702.000000	19.346801 
1701.000000	19.328933 
1700.000000	19.303927 
1699.000000	19.282014 
1698.000000	19.258583 
1697.000000	19.236315 
1696.000000	19.216661 
1695.000000	19.195474 
1694.000000	19.169392 
1693.000000	19.141803 
1692.000000	19.119333 
1691.000000	19.099948 
1690.000000	19.075362 
1689.000000	19.043229 
1688.000000	19.011403 
1687.000000	18.994066 
1686.000000	18.989354 
1685.000000	18.972674 
1684.000000	18.925994 
1683.000000	18.853233 
1682.000000	18.791090 
1681.000000	18.764304 
1680.000000	18.751823 
1679.000000	18.724201 
1678.000000	18.671144 
1677.000000	18.599925 
1676.000000	18.526263 
1675.000000	18.473062 
1674.000000	18.447090 
1673.000000	18.427923 
1672.000000	18.406357 
1671.000000	18.399500 
1670.000000	18.427270 
1669.000000	18.468139 
1668.000000	18.464010 
1667.000000	18.396951 
1666.000000	18.299055 
1665.000000	18.204888 
1664.000000	18.134434 
1663.000000	18.096422 
1662.000000	18.086433 
1661.000000	18.082454 
1660.000000	18.065105 
1659.000000	18.033336 
1658.000000	17.994270 
1657.000000	17.949373 
1656.000000	17.889564 
1655.000000	17.804469 
1654.000000	17.701667 
1653.000000	17.651611 
1652.000000	17.663056 
1651.000000	17.658089 
1650.000000	17.616309 
1649.000000	17.559140 
1648.000000	17.501259 
1647.000000	17.451729 
1646.000000	17.411607 
1645.000000	17.379734 
1644.000000	17.360810 
1643.000000	17.353417 
1642.000000	17.344649 
1641.000000	17.316498 
1640.000000	17.264269 
1639.000000	17.206512 
1638.000000	17.164594 
1637.000000	17.140814 
1636.000000	17.122824 
1635.000000	17.098300 
1634.000000	17.062014 
1633.000000	17.016722 
1632.000000	16.966338 
1631.000000	16.914256 
1630.000000	16.870168 
1629.000000	16.847257 
1628.000000	16.848739 
1627.000000	16.862203 
1626.000000	16.876175 
1625.000000	16.890395 
1624.000000	16.906278 
1623.000000	16.915029 
1622.000000	16.903757 
1621.000000	16.876593 
1620.000000	16.852947 
1619.000000	16.848752 
1618.000000	16.866238 
1617.000000	16.901154 
1616.000000	16.937824 
1615.000000	16.948714 
1614.000000	16.922072 
1613.000000	16.868918 
1612.000000	16.810526 
1611.000000	16.771178 
1610.000000	16.767113 
1609.000000	16.795609 
1608.000000	16.842692 
1607.000000	16.893510 
1606.000000	16.930966 
1605.000000	16.937687 
1604.000000	16.914149 
1603.000000	16.886798 
1602.000000	16.880706 
1601.000000	16.892219 
1600.000000	16.899996 
1599.000000	16.892711 
1598.000000	16.873862 
1597.000000	16.850702 
1596.000000	16.831466 
1595.000000	16.823867 
1594.000000	16.824659 
1593.000000	16.817775 
1592.000000	16.793184 
1591.000000	16.759541 
1590.000000	16.729828 
1589.000000	16.703220 
1588.000000	16.672162 
1587.000000	16.639993 
1586.000000	16.617300 
1585.000000	16.606725 
1584.000000	16.602006 
1583.000000	16.602570 
1582.000000	16.610166 
1581.000000	16.614592 
1580.000000	16.605963 
1579.000000	16.596397 
1578.000000	16.606607 
1577.000000	16.630388 
1576.000000	16.631785 
1575.000000	16.592843 
1574.000000	16.544869 
1573.000000	16.520438 
1572.000000	16.520390 
1571.000000	16.531147 
1570.000000	16.547590 
1569.000000	16.567572 
1568.000000	16.574890 
1567.000000	16.559661 
1566.000000	16.524287 
1565.000000	16.472467 
1564.000000	16.409346 
1563.000000	16.348408 
1562.000000	16.297813 
1561.000000	16.255245 
1560.000000	16.215821 
1559.000000	16.228627 
1558.000000	16.273357 
1557.000000	16.280031 
1556.000000	16.261432 
1555.000000	16.240292 
1554.000000	16.216480 
1553.000000	16.177612 
1552.000000	16.123894 
1551.000000	16.078224 
1550.000000	16.056681 
1549.000000	16.047529 
1548.000000	16.027631 
1547.000000	15.997956 
1546.000000	15.984797 
1545.000000	16.006761 
1544.000000	16.042668 
1543.000000	16.044316 
1542.000000	15.990535 
1541.000000	15.919562 
1540.000000	15.905572 
1539.000000	15.955451 
1538.000000	16.004215 
1537.000000	16.019880 
1536.000000	16.014897 
1535.000000	15.998962 
1534.000000	15.967247 
1533.000000	15.917529 
1532.000000	15.867812 
1531.000000	15.841625 
1530.000000	15.839908 
1529.000000	15.842273 
1528.000000	15.827703 
1527.000000	15.793865 
1526.000000	15.761339 
1525.000000	15.750101 
1524.000000	15.754562 
1523.000000	15.744999 
1522.000000	15.691059 
1521.000000	15.603260 
1520.000000	15.533970 
1519.000000	15.514388 
1518.000000	15.524743 
1517.000000	15.519529 
1516.000000	15.468639 
1515.000000	15.386337 
1514.000000	15.305277 
1513.000000	15.238824 
1512.000000	15.187851 
1511.000000	15.153578 
1510.000000	15.133282 
1509.000000	15.121835 
1508.000000	15.116657 
1507.000000	15.121683 
1506.000000	15.114969 
1505.000000	15.077591 
1504.000000	15.024870 
1503.000000	14.977500 
1502.000000	14.945314 
1501.000000	14.920177 
1500.000000	14.883804 
1499.000000	14.825224 
1498.000000	14.747248 
1497.000000	14.665182 
1496.000000	14.603613 
1495.000000	14.575900 
1494.000000	14.576460 
1493.000000	14.594685 
1492.000000	14.620291 
1491.000000	14.638972 
1490.000000	14.633380 
1489.000000	14.593698 
1488.000000	14.529307 
1487.000000	14.457720 
1486.000000	14.392762 
1485.000000	14.345521 
1484.000000	14.314038 
1483.000000	14.281857 
1482.000000	14.230243 
1481.000000	14.159064 
1480.000000	14.092290 
1479.000000	14.051534 
1478.000000	14.034288 
1477.000000	14.021540 
1476.000000	13.996760 
1475.000000	13.951084 
1474.000000	13.880706 
1473.000000	13.793082 
1472.000000	13.715610 
1471.000000	13.668021 
1470.000000	13.636196 
1469.000000	13.597068 
1468.000000	13.548226 
1467.000000	13.505727 
1466.000000	13.480314 
1465.000000	13.454653 
1464.000000	13.399385 
1463.000000	13.318179 
1462.000000	13.241973 
1461.000000	13.189432 
1460.000000	13.156754 
1459.000000	13.131408 
1458.000000	13.103913 
1457.000000	13.067446 
1456.000000	13.009860 
1455.000000	12.931161 
1454.000000	12.850697 
1453.000000	12.788259 
1452.000000	12.751062 
1451.000000	12.726940 
1450.000000	12.694762 
1449.000000	12.645127 
1448.000000	12.586462 
1447.000000	12.527690 
1446.000000	12.469562 
1445.000000	12.415498 
1444.000000	12.379852 
1443.000000	12.373871 
1442.000000	12.385966 
1441.000000	12.391574 
1440.000000	12.377817 
1439.000000	12.347270 
1438.000000	12.301165 
1437.000000	12.244088 
1436.000000	12.198542 
1435.000000	12.180400 
1434.000000	12.171590 
1433.000000	12.142583 
1432.000000	12.082027 
1431.000000	12.004830 
1430.000000	11.938080 
1429.000000	11.897054 
1428.000000	11.879835 
1427.000000	11.872898 
1426.000000	11.859640 
1425.000000	11.829164 
1424.000000	11.788806 
1423.000000	11.761280 
1422.000000	11.756924 
1421.000000	11.763797 
1420.000000	11.765911 
1419.000000	11.759628 
1418.000000	11.742164 
1417.000000	11.707717 
1416.000000	11.661998 
1415.000000	11.617608 
1414.000000	11.581155 
1413.000000	11.550771 
1412.000000	11.523807 
1411.000000	11.502241 
1410.000000	11.486714 
1409.000000	11.474451 
1408.000000	11.466824 
1407.000000	11.467583 
1406.000000	11.472302 
1405.000000	11.465373 
1404.000000	11.436731 
1403.000000	11.397525 
1402.000000	11.367032 
1401.000000	11.354993 
1400.000000	11.361010 
1399.000000	11.376665 
1398.000000	11.383789 
1397.000000	11.363310 
1396.000000	11.308956 
1395.000000	11.234105 
1394.000000	11.168526 
1393.000000	11.137670 
1392.000000	11.147218 
1391.000000	11.184664 
1390.000000	11.224335 
1389.000000	11.237467 
1388.000000	11.211409 
1387.000000	11.162410 
1386.000000	11.119189 
1385.000000	11.093272 
1384.000000	11.077273 
1383.000000	11.063945 
1382.000000	11.052999 
1381.000000	11.046009 
1380.000000	11.042983 
1379.000000	11.042325 
1378.000000	11.037127 
1377.000000	11.013174 
1376.000000	10.959580 
1375.000000	10.885218 
1374.000000	10.820062 
1373.000000	10.788275 
1372.000000	10.785435 
1371.000000	10.790453 
1370.000000	10.787853 
1369.000000	10.772008 
1368.000000	10.742653 
1367.000000	10.705451 
1366.000000	10.671972 
1365.000000	10.651842 
1364.000000	10.643302 
1363.000000	10.632937 
1362.000000	10.609228 
1361.000000	10.577203 
1360.000000	10.552650 
1359.000000	10.545509 
1358.000000	10.555795 
1357.000000	10.578487 
1356.000000	10.604949 
1355.000000	10.621459 
1354.000000	10.613870 
1353.000000	10.578739 
1352.000000	10.528321 
1351.000000	10.481330 
1350.000000	10.450654 
1349.000000	10.435965 
1348.000000	10.424993 
1347.000000	10.404169 
1346.000000	10.371755 
1345.000000	10.340940 
1344.000000	10.324763 
1343.000000	10.316279 
1342.000000	10.289670 
1341.000000	10.226651 
1340.000000	10.142179 
1339.000000	10.078046 
1338.000000	10.063795 
1337.000000	10.089135 
1336.000000	10.117275 
1335.000000	10.115521 
1334.000000	10.075395 
1333.000000	10.015114 
1332.000000	9.964666  
1331.000000	9.943032  
1330.000000	9.946053  
1329.000000	9.953930  
1328.000000	9.947615  
1327.000000	9.919194  
1326.000000	9.874991  
1325.000000	9.832406  
1324.000000	9.806854  
1323.000000	9.795649  
1322.000000	9.780050  
1321.000000	9.749509  
1320.000000	9.716553  
1319.000000	9.697779  
1318.000000	9.686244  
1317.000000	9.658760  
1316.000000	9.609043  
1315.000000	9.557373  
1314.000000	9.526710  
1313.000000	9.521175  
1312.000000	9.529133  
1311.000000	9.536650  
1310.000000	9.535051  
1309.000000	9.525705  
1308.000000	9.521479  
1307.000000	9.533216  
1306.000000	9.551040  
1305.000000	9.549912  
1304.000000	9.519362  
1303.000000	9.477572  
1302.000000	9.449134  
1301.000000	9.437733  
1300.000000	9.428857  
1299.000000	9.411470  
1298.000000	9.387090  
1297.000000	9.362748  
1296.000000	9.344167  
1295.000000	9.332902  
1294.000000	9.322579  
1293.000000	9.301068  
1292.000000	9.264046  
1291.000000	9.224361  
1290.000000	9.200513  
1289.000000	9.196091  
1288.000000	9.196673  
1287.000000	9.187286  
1286.000000	9.167490  
1285.000000	9.148026  
1284.000000	9.137071  
1283.000000	9.131519  
1282.000000	9.118987  
1281.000000	9.087580  
1280.000000	9.034784  
1279.000000	8.967494  
1278.000000	8.895912  
1277.000000	8.830396  
1276.000000	8.782310  
1275.000000	8.761710  
1274.000000	8.770371  
1273.000000	8.798705  
1272.000000	8.830750  
1271.000000	8.850874  
1270.000000	8.848915  
1269.000000	8.825315  
1268.000000	8.791839  
1267.000000	8.762460  
1266.000000	8.741045  
1265.000000	8.720370  
1264.000000	8.693163  
1263.000000	8.658620  
1262.000000	8.618202  
1261.000000	8.574727  
1260.000000	8.538965  
1259.000000	8.525860  
1258.000000	8.535391  
1257.000000	8.544353  
1256.000000	8.525947  
1255.000000	8.475617  
1254.000000	8.413903  
1253.000000	8.366800  
1252.000000	8.346879  
1251.000000	8.349119  
1250.000000	8.358785  
1249.000000	8.364430  
1248.000000	8.365343  
1247.000000	8.362809  
1246.000000	8.344736  
1245.000000	8.291882  
1244.000000	8.207926  
1243.000000	8.131872  
1242.000000	8.104517  
1241.000000	8.124536  
1240.000000	8.150057  
1239.000000	8.142663  
1238.000000	8.098190  
1237.000000	8.034737  
1236.000000	7.967386  
1235.000000	7.904063  
1234.000000	7.852596  
1233.000000	7.815498  
1232.000000	7.781476  
1231.000000	7.736012  
1230.000000	7.682059  
1229.000000	7.639612  
1228.000000	7.620990  
1227.000000	7.615841  
1226.000000	7.607182  
1225.000000	7.594931  
1224.000000	7.593421  
1223.000000	7.609419  
1222.000000	7.633255  
1221.000000	7.650509  
1220.000000	7.651380  
1219.000000	7.627566  
1218.000000	7.574001  
1217.000000	7.501424  
1216.000000	7.436122  
1215.000000	7.397287  
1214.000000	7.381170  
1213.000000	7.373409  
1212.000000	7.367074  
1211.000000	7.358285  
1210.000000	7.335957  
1209.000000	7.295539  
1208.000000	7.257835  
1207.000000	7.252394  
1206.000000	7.278568  
1205.000000	7.301499  
1204.000000	7.293010  
1203.000000	7.258871  
1202.000000	7.218401  
1201.000000	7.176529  
1200.000000	7.130466  
1199.000000	7.089739  
1198.000000	7.068809  
1197.000000	7.063822  
1196.000000	7.054625  
1195.000000	7.029346  
1194.000000	6.993880  
1193.000000	6.958458  
1192.000000	6.928130  
1191.000000	6.909471  
1190.000000	6.914438  
1189.000000	6.947680  
1188.000000	6.993516  
1187.000000	7.023581  
1186.000000	7.020429  
1185.000000	6.991718  
1184.000000	6.959900  
1183.000000	6.940512  
1182.000000	6.933106  
1181.000000	6.931114  
1180.000000	6.931762  
1179.000000	6.931315  
1178.000000	6.920028  
1177.000000	6.893561  
1176.000000	6.866695  
1175.000000	6.863385  
1174.000000	6.889415  
1173.000000	6.923698  
1172.000000	6.940141  
1171.000000	6.929532  
1170.000000	6.896614  
1169.000000	6.845781  
1168.000000	6.779095  
1167.000000	6.704516  
1166.000000	6.636489  
1165.000000	6.588077  
1164.000000	6.566823  
1163.000000	6.575284  
1162.000000	6.609879  
1161.000000	6.660006  
1160.000000	6.712661  
1159.000000	6.759400  
1158.000000	6.798903  
1157.000000	6.834313  
1156.000000	6.868065  
1155.000000	6.896462  
1154.000000	6.909060  
1153.000000	6.897250  
1152.000000	6.865131  
1151.000000	6.829579  
1150.000000	6.807256  
1149.000000	6.802782  
1148.000000	6.809407  
1147.000000	6.814354  
1146.000000	6.802091  
1145.000000	6.762100  
1144.000000	6.699944  
1143.000000	6.636824  
1142.000000	6.593554  
1141.000000	6.577431  
1140.000000	6.584944  
1139.000000	6.609989  
1138.000000	6.645224  
1137.000000	6.680140  
1136.000000	6.704639  
1135.000000	6.712790  
1134.000000	6.701335  
1133.000000	6.673303  
1132.000000	6.646531  
1131.000000	6.645415  
1130.000000	6.672499  
1129.000000	6.697033  
1128.000000	6.685665  
1127.000000	6.639479  
1126.000000	6.588599  
1125.000000	6.557580  
1124.000000	6.554169  
1123.000000	6.584545  
1122.000000	6.649755  
1121.000000	6.720450  
1120.000000	6.742214  
1119.000000	6.687119  
1118.000000	6.589647  
1117.000000	6.513377  
1116.000000	6.488772  
1115.000000	6.498937  
1114.000000	6.515689  
1113.000000	6.526232  
1112.000000	6.526011  
1111.000000	6.511701  
1110.000000	6.494148  
1109.000000	6.500345  
1108.000000	6.545923  
1107.000000	6.612810  
1106.000000	6.666181  
1105.000000	6.690206  
1104.000000	6.697596  
1103.000000	6.708588  
1102.000000	6.728860  
1101.000000	6.745858  
1100.000000	6.743630  
1099.000000	6.720579  
1098.000000	6.696232  
1097.000000	6.698723  
1096.000000	6.735620  
1095.000000	6.780129  
1094.000000	6.798654  
1093.000000	6.788151  
1092.000000	6.771635  
1091.000000	6.758763  
1090.000000	6.729856  
1089.000000	6.668647  
1088.000000	6.598196  
1087.000000	6.568672  
1086.000000	6.608581  
1085.000000	6.694657  
1084.000000	6.771215  
1083.000000	6.797186  
1082.000000	6.777511  
1081.000000	6.751712  
1080.000000	6.751171  
1079.000000	6.768292  
1078.000000	6.770000  
1077.000000	6.740914  
1076.000000	6.706285  
1075.000000	6.706572  
1074.000000	6.751582  
1073.000000	6.806637  
1072.000000	6.827872  
1071.000000	6.807609  
1070.000000	6.780235  
1069.000000	6.784045  
1068.000000	6.822048  
1067.000000	6.864429  
1066.000000	6.884658  
1065.000000	6.880631  
1064.000000	6.861072  
1063.000000	6.828160  
1062.000000	6.783685  
1061.000000	6.746654  
1060.000000	6.750755  
1059.000000	6.813931  
1058.000000	6.912621  
1057.000000	6.995922  
1056.000000	7.028188  
1055.000000	7.011973  
1054.000000	6.970601  
1053.000000	6.921898  
1052.000000	6.877277  
1051.000000	6.855105  
1050.000000	6.872239  
1049.000000	6.916131  
1048.000000	6.946540  
1047.000000	6.941814  
1046.000000	6.931040  
1045.000000	6.962046  
1044.000000	7.044835  
1043.000000	7.143210  
1042.000000	7.216109  
1041.000000	7.250058  
1040.000000	7.254952  
1039.000000	7.250631  
1038.000000	7.260989  
1037.000000	7.299706  
1036.000000	7.352628  
1035.000000	7.387674  
1034.000000	7.388500  
1033.000000	7.369159  
1032.000000	7.354947  
1031.000000	7.363819  
1030.000000	7.407217  
1029.000000	7.481970  
1028.000000	7.554679  
1027.000000	7.581138  
1026.000000	7.552410  
1025.000000	7.503497  
1024.000000	7.470337  
1023.000000	7.463223  
1022.000000	7.487740  
1021.000000	7.557187  
1020.000000	7.663931  
1019.000000	7.763866  
1018.000000	7.816252  
1017.000000	7.824183  
1016.000000	7.817777  
1015.000000	7.816192  
1014.000000	7.823121  
1013.000000	7.838491  
1012.000000	7.855665  
1011.000000	7.866117  
1010.000000	7.879935  
1009.000000	7.916011  
1008.000000	7.962880  
1007.000000	7.990687  
1006.000000	8.012268  
1005.000000	8.062372  
1004.000000	8.078830  
1003.000000	7.896944  
1002.000000	7.465110  
1001.000000	7.009606  
1000.000000	6.875925  
999.000000	 7.191579  
998.000000	 7.725762  
997.000000	 8.143018  
996.000000	 8.333741  
995.000000	 8.406618  
994.000000	 8.469151  
993.000000	 8.529000  
992.000000	 8.560875  
991.000000	 8.565749  
990.000000	 8.553649  
989.000000	 8.528827  
988.000000	 8.502473  
987.000000	 8.485094  
986.000000	 8.468533  
985.000000	 8.447422  
984.000000	 8.450029  
983.000000	 8.512392  
982.000000	 8.625281  
981.000000	 8.738271  
980.000000	 8.813704  
979.000000	 8.849487  
978.000000	 8.857323  
977.000000	 8.852016  
976.000000	 8.859043  
975.000000	 8.898227  
974.000000	 8.953336  
973.000000	 8.983713  
972.000000	 8.974695  
971.000000	 8.957886  
970.000000	 8.975678  
969.000000	 9.040771  
968.000000	 9.131959  
967.000000	 9.212755  
966.000000	 9.251976  
965.000000	 9.244330  
964.000000	 9.217586  
963.000000	 9.208545  
962.000000	 9.232561  
961.000000	 9.285134  
960.000000	 9.360252  
959.000000	 9.447538  
958.000000	 9.521737  
957.000000	 9.561186  
956.000000	 9.575465  
955.000000	 9.591613  
954.000000	 9.612700  
953.000000	 9.616291  
952.000000	 9.599323  
951.000000	 9.595511  
950.000000	 9.632468  
949.000000	 9.692433  
948.000000	 9.734700  
947.000000	 9.745292  
946.000000	 9.746966  
945.000000	 9.766208  
944.000000	 9.807979  
943.000000	 9.864273  
942.000000	 9.932559  
941.000000	 10.016110 
940.000000	 10.109382 
939.000000	 10.192428 
938.000000	 10.247889 
937.000000	 10.280665 
936.000000	 10.309829 
935.000000	 10.341416 
934.000000	 10.363461 
933.000000	 10.372034 
932.000000	 10.385169 
931.000000	 10.419782 
930.000000	 10.470302 
929.000000	 10.526748 
928.000000	 10.600160 
927.000000	 10.705289 
926.000000	 10.822831 
925.000000	 10.907193 
924.000000	 10.937159 
923.000000	 10.935149 
922.000000	 10.930573 
921.000000	 10.926993 
920.000000	 10.916720 
919.000000	 10.910688 
918.000000	 10.934898 
917.000000	 11.000184 
916.000000	 11.088375 
915.000000	 11.169568 
914.000000	 11.226367 
913.000000	 11.260151 
912.000000	 11.279846 
911.000000	 11.292327 
910.000000	 11.307637 
909.000000	 11.348085 
908.000000	 11.437139 
907.000000	 11.570691 
906.000000	 11.708935 
905.000000	 11.810739 
904.000000	 11.875267 
903.000000	 11.940545 
902.000000	 12.040132 
901.000000	 12.167326 
900.000000	 12.281666 
899.000000	 12.344400 
898.000000	 12.352027 
897.000000	 12.342792 
896.000000	 12.365632 
895.000000	 12.436940 
894.000000	 12.530762 
893.000000	 12.614258 
892.000000	 12.686873 
891.000000	 12.777212 
890.000000	 12.906215 
889.000000	 13.063861 
888.000000	 13.220733 
887.000000	 13.353469 
886.000000	 13.457253 
885.000000	 13.540639 
884.000000	 13.613408 
883.000000	 13.677324 
882.000000	 13.729979 
881.000000	 13.779316 
880.000000	 13.847715 
879.000000	 13.958124 
878.000000	 14.117622 
877.000000	 14.312850 
876.000000	 14.517379 
875.000000	 14.704909 
874.000000	 14.861641 
873.000000	 14.985507 
872.000000	 15.071035 
871.000000	 15.105805 
870.000000	 15.095529 
869.000000	 15.084218 
868.000000	 15.126348 
867.000000	 15.235714 
866.000000	 15.378560 
865.000000	 15.516665 
864.000000	 15.634196 
863.000000	 15.720499 
862.000000	 15.759733 
861.000000	 15.758706 
860.000000	 15.763538 
859.000000	 15.820296 
858.000000	 15.924480 
857.000000	 16.028063 
856.000000	 16.090164 
855.000000	 16.106277 
854.000000	 16.099040 
853.000000	 16.100309 
852.000000	 16.135987 
851.000000	 16.208297 
850.000000	 16.294050 
849.000000	 16.373588 
848.000000	 16.454969 
847.000000	 16.552425 
846.000000	 16.647661 
845.000000	 16.698094 
844.000000	 16.687420 
843.000000	 16.647507 
842.000000	 16.622756 
841.000000	 16.626885 
840.000000	 16.646100 
839.000000	 16.672867 
838.000000	 16.716765 
837.000000	 16.785709 
836.000000	 16.869074 
835.000000	 16.940197 
834.000000	 16.975795 
833.000000	 16.976190 
832.000000	 16.965898 
831.000000	 16.973574 
830.000000	 17.014478 
829.000000	 17.089071 
828.000000	 17.186475 
827.000000	 17.285370 
826.000000	 17.363006 
825.000000	 17.414975 
824.000000	 17.460093 
823.000000	 17.513827 
822.000000	 17.565148 
821.000000	 17.597228 
820.000000	 17.623817 
819.000000	 17.680003 
818.000000	 17.773830 
817.000000	 17.871336 
816.000000	 17.941548 
815.000000	 17.996814 
814.000000	 18.070192 
813.000000	 18.167529 
812.000000	 18.267192 
811.000000	 18.360535 
810.000000	 18.460638 
809.000000	 18.561509 
808.000000	 18.619168 
807.000000	 18.602035 
806.000000	 18.547627 
805.000000	 18.536987 
804.000000	 18.611234 
803.000000	 18.738192 
802.000000	 18.862269 
801.000000	 18.958565 
800.000000	 19.026770 
799.000000	 19.062143 
798.000000	 19.063337 
797.000000	 19.055876 
796.000000	 19.075737 
795.000000	 19.130563 
794.000000	 19.198980 
793.000000	 19.265820 
792.000000	 19.337365 
791.000000	 19.420462 
790.000000	 19.506457 
789.000000	 19.581047 
788.000000	 19.633291 
787.000000	 19.651494 
786.000000	 19.630966 
785.000000	 19.595432 
784.000000	 19.591867 
783.000000	 19.650864 
782.000000	 19.762896 
781.000000	 19.896912 
780.000000	 20.025229 
779.000000	 20.124840 
778.000000	 20.177976 
777.000000	 20.192205 
776.000000	 20.208966 
775.000000	 20.272270 
774.000000	 20.388597 
773.000000	 20.525230 
772.000000	 20.642928 
771.000000	 20.721409 
770.000000	 20.762541 
769.000000	 20.784889 
768.000000	 20.811291 
767.000000	 20.849704 
766.000000	 20.889013 
765.000000	 20.922290 
764.000000	 20.966846 
763.000000	 21.044796 
762.000000	 21.146425 
761.000000	 21.231967 
760.000000	 21.275254 
759.000000	 21.293083 
758.000000	 21.324725 
757.000000	 21.390860 
756.000000	 21.478367 
755.000000	 21.559029 
754.000000	 21.618091 
753.000000	 21.665258 
752.000000	 21.718654 
751.000000	 21.781890 
750.000000	 21.841741 
749.000000	 21.886634 
748.000000	 21.920051 
747.000000	 21.953073 
746.000000	 21.992408 
745.000000	 22.043154 
744.000000	 22.114082 
743.000000	 22.206375 
742.000000	 22.302054 
741.000000	 22.380401 
740.000000	 22.447712 
739.000000	 22.533435 
738.000000	 22.647919 
737.000000	 22.759619 
736.000000	 22.829530 
735.000000	 22.859763 
734.000000	 22.890938 
733.000000	 22.951401 
732.000000	 23.025586 
731.000000	 23.080818 
730.000000	 23.110888 
729.000000	 23.138182 
728.000000	 23.180935 
727.000000	 23.235328 
726.000000	 23.290276 
725.000000	 23.345126 
724.000000	 23.404743 
723.000000	 23.465064 
722.000000	 23.513342 
721.000000	 23.542549 
720.000000	 23.561551 
719.000000	 23.589867 
718.000000	 23.644081 
717.000000	 23.729377 
716.000000	 23.837952 
715.000000	 23.951261 
714.000000	 24.048545 
713.000000	 24.121188 
712.000000	 24.184486 
711.000000	 24.274427 
710.000000	 24.420475 
709.000000	 24.606372 
708.000000	 24.764341 
707.000000	 24.832618 
706.000000	 24.825279 
705.000000	 24.827675 
704.000000	 24.906633 
703.000000	 25.035142 
702.000000	 25.129268 
701.000000	 25.153732 
700.000000	 25.161337 
699.000000	 25.221437 
698.000000	 25.335612 
697.000000	 25.443822 
696.000000	 25.498898 
695.000000	 25.507396 
694.000000	 25.501512 
693.000000	 25.501444 
692.000000	 25.513935 
691.000000	 25.549371 
690.000000	 25.620841 
689.000000	 25.723663 
688.000000	 25.829429 
687.000000	 25.909693 
686.000000	 25.962028 
685.000000	 26.008884 
684.000000	 26.073719 
683.000000	 26.161342 
682.000000	 26.259830 
681.000000	 26.356922 
680.000000	 26.452867 
679.000000	 26.552705 
678.000000	 26.647519 
677.000000	 26.704618 
676.000000	 26.709772 
675.000000	 26.690187 
674.000000	 26.699766 
673.000000	 26.782753 
672.000000	 26.926217 
671.000000	 27.070951 
670.000000	 27.190819 
669.000000	 27.351488 
668.000000	 27.519573 
667.000000	 27.481199 
666.000000	 27.349616 
665.000000	 27.288247 
664.000000	 27.259459 
663.000000	 27.281939 
662.000000	 27.411172 
661.000000	 27.610048 
660.000000	 27.781690 
659.000000	 27.880167 
658.000000	 27.930335 
657.000000	 27.947947 
656.000000	 27.922015 
655.000000	 27.862378 
654.000000	 27.829271 
653.000000	 27.881973 
652.000000	 28.012504 
651.000000	 28.165344 
650.000000	 28.305603 

