PE IR                   SPECTRUM    ASCII       PEDS        1.60        
  -1
~SP.SP
22/02/22
10:08:43.00
22/02/22
10:08:43.00
Administrator

650.000000
4









SPECTRUM 100,CPU32 MAIN 00.02.7000 27-JANUARY-2006 11:32:41
MCT
MIR
OPTKBR
76073
1.000000

4.000000
STRONG
RATIO
SPECTRUM
MAGNITUDE
MIR INT SPHERE
DOUBLE

COMBINED


0


#HDR
-1
-1
#GR
CM-1
%T
0.00002384185791015625
0.0
4000.000000
-1.000000
3351
8
40.471763
6.588070
#DATA
4000.000000	35.935440 
3999.000000	35.907229 
3998.000000	35.879085 
3997.000000	35.834939 
3996.000000	35.794259 
3995.000000	35.774891 
3994.000000	35.782021 
3993.000000	35.806703 
3992.000000	35.834822 
3991.000000	35.858148 
3990.000000	35.877478 
3989.000000	35.894888 
3988.000000	35.905266 
3987.000000	35.899689 
3986.000000	35.877955 
3985.000000	35.854327 
3984.000000	35.846490 
3983.000000	35.858623 
3982.000000	35.877568 
3981.000000	35.886859 
3980.000000	35.883060 
3979.000000	35.876053 
3978.000000	35.874574 
3977.000000	35.875013 
3976.000000	35.867397 
3975.000000	35.851431 
3974.000000	35.842012 
3973.000000	35.854160 
3972.000000	35.884385 
3971.000000	35.911797 
3970.000000	35.918285 
3969.000000	35.904773 
3968.000000	35.886389 
3967.000000	35.875270 
3966.000000	35.870572 
3965.000000	35.864647 
3964.000000	35.855612 
3963.000000	35.851266 
3962.000000	35.859552 
3961.000000	35.876375 
3960.000000	35.886346 
3959.000000	35.878098 
3958.000000	35.856157 
3957.000000	35.834965 
3956.000000	35.822776 
3955.000000	35.815774 
3954.000000	35.807881 
3953.000000	35.801003 
3952.000000	35.802158 
3951.000000	35.811473 
3950.000000	35.818917 
3949.000000	35.815151 
3948.000000	35.803042 
3947.000000	35.794130 
3946.000000	35.794489 
3945.000000	35.797888 
3944.000000	35.792943 
3943.000000	35.776316 
3942.000000	35.759163 
3941.000000	35.757228 
3940.000000	35.775227 
3939.000000	35.801523 
3938.000000	35.816868 
3937.000000	35.810041 
3936.000000	35.786173 
3935.000000	35.760470 
3934.000000	35.744321 
3933.000000	35.739800 
3932.000000	35.748929 
3931.000000	35.779782 
3930.000000	35.836269 
3929.000000	35.903016 
3928.000000	35.948843 
3927.000000	35.949509 
3926.000000	35.906850 
3925.000000	35.846322 
3924.000000	35.794679 
3923.000000	35.764715 
3922.000000	35.761056 
3921.000000	35.786683 
3920.000000	35.834814 
3919.000000	35.883211 
3918.000000	35.904963 
3917.000000	35.888394 
3916.000000	35.846743 
3915.000000	35.809840 
3914.000000	35.804861 
3913.000000	35.836707 
3912.000000	35.880638 
3911.000000	35.899113 
3910.000000	35.871233 
3909.000000	35.809318 
3908.000000	35.745827 
3907.000000	35.709844 
3906.000000	35.711914 
3905.000000	35.739973 
3904.000000	35.765416 
3903.000000	35.759320 
3902.000000	35.718123 
3901.000000	35.670515 
3900.000000	35.649047 
3899.000000	35.659143 
3898.000000	35.682884 
3897.000000	35.709081 
3896.000000	35.745341 
3895.000000	35.797531 
3894.000000	35.850590 
3893.000000	35.877357 
3892.000000	35.859234 
3891.000000	35.798476 
3890.000000	35.710021 
3889.000000	35.619896 
3888.000000	35.564826 
3887.000000	35.564005 
3886.000000	35.595377 
3885.000000	35.610136 
3884.000000	35.580532 
3883.000000	35.538639 
3882.000000	35.544504 
3881.000000	35.615679 
3880.000000	35.709731 
3879.000000	35.767653 
3878.000000	35.770202 
3877.000000	35.750878 
3876.000000	35.748928 
3875.000000	35.767730 
3874.000000	35.780307 
3873.000000	35.760385 
3872.000000	35.713140 
3871.000000	35.672327 
3870.000000	35.659606 
3869.000000	35.654373 
3868.000000	35.623692 
3867.000000	35.581490 
3866.000000	35.570002 
3865.000000	35.596029 
3864.000000	35.627279 
3863.000000	35.636272 
3862.000000	35.623383 
3861.000000	35.599965 
3860.000000	35.567599 
3859.000000	35.526960 
3858.000000	35.481022 
3857.000000	35.423409 
3856.000000	35.337510 
3855.000000	35.225785 
3854.000000	35.145559 
3853.000000	35.161528 
3852.000000	35.237010 
3851.000000	35.309940 
3850.000000	35.404512 
3849.000000	35.540934 
3848.000000	35.680703 
3847.000000	35.776519 
3846.000000	35.809476 
3845.000000	35.788431 
3844.000000	35.733304 
3843.000000	35.667283 
3842.000000	35.609324 
3841.000000	35.567089 
3840.000000	35.534486 
3839.000000	35.497071 
3838.000000	35.445065 
3837.000000	35.390891 
3836.000000	35.362635 
3835.000000	35.379197 
3834.000000	35.434085 
3833.000000	35.498939 
3832.000000	35.543503 
3831.000000	35.550992 
3830.000000	35.523950 
3829.000000	35.487785 
3828.000000	35.478586 
3827.000000	35.515392 
3826.000000	35.578620 
3825.000000	35.622396 
3824.000000	35.617935 
3823.000000	35.579461 
3822.000000	35.542280 
3821.000000	35.522468 
3820.000000	35.491428 
3819.000000	35.424081 
3818.000000	35.363879 
3817.000000	35.368983 
3816.000000	35.436822 
3815.000000	35.507697 
3814.000000	35.535481 
3813.000000	35.546247 
3812.000000	35.585908 
3811.000000	35.643580 
3810.000000	35.672190 
3809.000000	35.653736 
3808.000000	35.618718 
3807.000000	35.603628 
3806.000000	35.595420 
3805.000000	35.553410 
3804.000000	35.482324 
3803.000000	35.428208 
3802.000000	35.422298 
3801.000000	35.452349 
3800.000000	35.468654 
3799.000000	35.454812 
3798.000000	35.455051 
3797.000000	35.494448 
3796.000000	35.546863 
3795.000000	35.578290 
3794.000000	35.585386 
3793.000000	35.589262 
3792.000000	35.601412 
3791.000000	35.610207 
3790.000000	35.600997 
3789.000000	35.571004 
3788.000000	35.522485 
3787.000000	35.459394 
3786.000000	35.397879 
3785.000000	35.367426 
3784.000000	35.388016 
3783.000000	35.447821 
3782.000000	35.513425 
3781.000000	35.558059 
3780.000000	35.576332 
3779.000000	35.582013 
3778.000000	35.590479 
3777.000000	35.605818 
3776.000000	35.621853 
3775.000000	35.624423 
3774.000000	35.595238 
3773.000000	35.528602 
3772.000000	35.447108 
3771.000000	35.391936 
3770.000000	35.387904 
3769.000000	35.416838 
3768.000000	35.440881 
3767.000000	35.449826 
3766.000000	35.459659 
3765.000000	35.474916 
3764.000000	35.476196 
3763.000000	35.447784 
3762.000000	35.405141 
3761.000000	35.380525 
3760.000000	35.389179 
3759.000000	35.416974 
3758.000000	35.432886 
3757.000000	35.415072 
3756.000000	35.361301 
3755.000000	35.281861 
3754.000000	35.187888 
3753.000000	35.082342 
3752.000000	34.970439 
3751.000000	34.881536 
3750.000000	34.854400 
3749.000000	34.884824 
3748.000000	34.931290 
3747.000000	34.971653 
3746.000000	35.014119 
3745.000000	35.072928 
3744.000000	35.133860 
3743.000000	35.133588 
3742.000000	35.060282 
3741.000000	35.000666 
3740.000000	35.001456 
3739.000000	35.025045 
3738.000000	35.028805 
3737.000000	35.014268 
3736.000000	35.009716 
3735.000000	35.033038 
3734.000000	35.087415 
3733.000000	35.169975 
3732.000000	35.261250 
3731.000000	35.320061 
3730.000000	35.321736 
3729.000000	35.289883 
3728.000000	35.270801 
3727.000000	35.287892 
3726.000000	35.322445 
3725.000000	35.335531 
3724.000000	35.314183 
3723.000000	35.284113 
3722.000000	35.274604 
3721.000000	35.287479 
3720.000000	35.301435 
3719.000000	35.295514 
3718.000000	35.263962 
3717.000000	35.217486 
3716.000000	35.172746 
3715.000000	35.141983 
3714.000000	35.122832 
3713.000000	35.096452 
3712.000000	35.048747 
3711.000000	34.996497 
3710.000000	34.969446 
3709.000000	34.971683 
3708.000000	34.978563 
3707.000000	34.967397 
3706.000000	34.938809 
3705.000000	34.911609 
3704.000000	34.909799 
3703.000000	34.943246 
3702.000000	34.997585 
3701.000000	35.037577 
3700.000000	35.036587 
3699.000000	35.004653 
3698.000000	34.976998 
3697.000000	34.969614 
3696.000000	34.958278 
3695.000000	34.908027 
3694.000000	34.815940 
3693.000000	34.711964 
3692.000000	34.620069 
3691.000000	34.543504 
3690.000000	34.485029 
3689.000000	34.462641 
3688.000000	34.476687 
3687.000000	34.492342 
3686.000000	34.483654 
3685.000000	34.455296 
3684.000000	34.414597 
3683.000000	34.358731 
3682.000000	34.293009 
3681.000000	34.233959 
3680.000000	34.188266 
3679.000000	34.132384 
3678.000000	34.036869 
3677.000000	33.908219 
3676.000000	33.797161 
3675.000000	33.738562 
3674.000000	33.697638 
3673.000000	33.648176 
3672.000000	33.624356 
3671.000000	33.640159 
3670.000000	33.657391 
3669.000000	33.638678 
3668.000000	33.593350 
3667.000000	33.568062 
3666.000000	33.583637 
3665.000000	33.607321 
3664.000000	33.592793 
3663.000000	33.525382 
3662.000000	33.428290 
3661.000000	33.336998 
3660.000000	33.274825 
3659.000000	33.250215 
3658.000000	33.265201 
3657.000000	33.308440 
3656.000000	33.341840 
3655.000000	33.311298 
3654.000000	33.198633 
3653.000000	33.041703 
3652.000000	32.887973 
3651.000000	32.757410 
3650.000000	32.649792 
3649.000000	32.560374 
3648.000000	32.486023 
3647.000000	32.429909 
3646.000000	32.394644 
3645.000000	32.373854 
3644.000000	32.355007 
3643.000000	32.327469 
3642.000000	32.288576 
3641.000000	32.246687 
3640.000000	32.211972 
3639.000000	32.182021 
3638.000000	32.140660 
3637.000000	32.076071 
3636.000000	31.999500 
3635.000000	31.933972 
3634.000000	31.884447 
3633.000000	31.830863 
3632.000000	31.758863 
3631.000000	31.681750 
3630.000000	31.621161 
3629.000000	31.574798 
3628.000000	31.503873 
3627.000000	31.375343 
3626.000000	31.220409 
3625.000000	31.093972 
3624.000000	31.007195 
3623.000000	30.939789 
3622.000000	30.873010 
3621.000000	30.796708 
3620.000000	30.706872 
3619.000000	30.607861 
3618.000000	30.507930 
3617.000000	30.408267 
3616.000000	30.305900 
3615.000000	30.200671 
3614.000000	30.097887 
3613.000000	30.004982 
3612.000000	29.925802 
3611.000000	29.860710 
3610.000000	29.808833 
3609.000000	29.765770 
3608.000000	29.722336 
3607.000000	29.673856 
3606.000000	29.628052 
3605.000000	29.594024 
3604.000000	29.563050 
3603.000000	29.507724 
3602.000000	29.408176 
3601.000000	29.276312 
3600.000000	29.151372 
3599.000000	29.066171 
3598.000000	29.025551 
3597.000000	29.013694 
3596.000000	29.011795 
3595.000000	29.004688 
3594.000000	28.977971 
3593.000000	28.921140 
3592.000000	28.838339 
3591.000000	28.748144 
3590.000000	28.666041 
3589.000000	28.594618 
3588.000000	28.528122 
3587.000000	28.461881 
3586.000000	28.392973 
3585.000000	28.321957 
3584.000000	28.255988 
3583.000000	28.201815 
3582.000000	28.157174 
3581.000000	28.111010 
3580.000000	28.053702 
3579.000000	27.986018 
3578.000000	27.918169 
3577.000000	27.859666 
3576.000000	27.811462 
3575.000000	27.768480 
3574.000000	27.723824 
3573.000000	27.671562 
3572.000000	27.607553 
3571.000000	27.534057 
3570.000000	27.459313 
3569.000000	27.391791 
3568.000000	27.333035 
3567.000000	27.279015 
3566.000000	27.228929 
3565.000000	27.191045 
3564.000000	27.175042 
3563.000000	27.177821 
3562.000000	27.179422 
3561.000000	27.157110 
3560.000000	27.103728 
3559.000000	27.033416 
3558.000000	26.969224 
3557.000000	26.926765 
3556.000000	26.906904 
3555.000000	26.900753 
3554.000000	26.896285 
3553.000000	26.881233 
3552.000000	26.846303 
3551.000000	26.794451 
3550.000000	26.746447 
3549.000000	26.728395 
3548.000000	26.746341 
3547.000000	26.773181 
3546.000000	26.768046 
3545.000000	26.715145 
3544.000000	26.640479 
3543.000000	26.585903 
3542.000000	26.571100 
3541.000000	26.581110 
3540.000000	26.585563 
3539.000000	26.569090 
3538.000000	26.546890 
3537.000000	26.549403 
3536.000000	26.588226 
3535.000000	26.638781 
3534.000000	26.663589 
3533.000000	26.649042 
3532.000000	26.613980 
3531.000000	26.583653 
3530.000000	26.564730 
3529.000000	26.548638 
3528.000000	26.532921 
3527.000000	26.528210 
3526.000000	26.541995 
3525.000000	26.563822 
3524.000000	26.573564 
3523.000000	26.562843 
3522.000000	26.542951 
3521.000000	26.530328 
3520.000000	26.529775 
3519.000000	26.534766 
3518.000000	26.538574 
3517.000000	26.537524 
3516.000000	26.525215 
3515.000000	26.494755 
3514.000000	26.453770 
3513.000000	26.429491 
3512.000000	26.446191 
3511.000000	26.495671 
3510.000000	26.538883 
3509.000000	26.543994 
3508.000000	26.517562 
3507.000000	26.492716 
3506.000000	26.493698 
3505.000000	26.518569 
3504.000000	26.549105 
3503.000000	26.569210 
3502.000000	26.575164 
3501.000000	26.572836 
3500.000000	26.567472 
3499.000000	26.557284 
3498.000000	26.538864 
3497.000000	26.517662 
3496.000000	26.507465 
3495.000000	26.514516 
3494.000000	26.526644 
3493.000000	26.525038 
3492.000000	26.505599 
3491.000000	26.483257 
3490.000000	26.476202 
3489.000000	26.489501 
3488.000000	26.512232 
3487.000000	26.526732 
3486.000000	26.522998 
3485.000000	26.510445 
3484.000000	26.514661 
3483.000000	26.556089 
3482.000000	26.628899 
3481.000000	26.703824 
3480.000000	26.754668 
3479.000000	26.777548 
3478.000000	26.783434 
3477.000000	26.780081 
3476.000000	26.767119 
3475.000000	26.744824 
3474.000000	26.720445 
3473.000000	26.704515 
3472.000000	26.704667 
3471.000000	26.724680 
3470.000000	26.766535 
3469.000000	26.828836 
3468.000000	26.900866 
3467.000000	26.961997 
3466.000000	26.993195 
3465.000000	26.991093 
3464.000000	26.967137 
3463.000000	26.932481 
3462.000000	26.889113 
3461.000000	26.838394 
3460.000000	26.791087 
3459.000000	26.760459 
3458.000000	26.748708 
3457.000000	26.748471 
3456.000000	26.756377 
3455.000000	26.776042 
3454.000000	26.806776 
3453.000000	26.837654 
3452.000000	26.858388 
3451.000000	26.871077 
3450.000000	26.886945 
3449.000000	26.914013 
3448.000000	26.951198 
3447.000000	26.992177 
3446.000000	27.030471 
3445.000000	27.060434 
3444.000000	27.076511 
3443.000000	27.075195 
3442.000000	27.060136 
3441.000000	27.044989 
3440.000000	27.046408 
3439.000000	27.069872 
3438.000000	27.103770 
3437.000000	27.130480 
3436.000000	27.143835 
3435.000000	27.153979 
3434.000000	27.175258 
3433.000000	27.212458 
3432.000000	27.258829 
3431.000000	27.304172 
3430.000000	27.343810 
3429.000000	27.379750 
3428.000000	27.413300 
3427.000000	27.438455 
3426.000000	27.446255 
3425.000000	27.437150 
3424.000000	27.424506 
3423.000000	27.422568 
3422.000000	27.434138 
3421.000000	27.454062 
3420.000000	27.480595 
3419.000000	27.514847 
3418.000000	27.551948 
3417.000000	27.584190 
3416.000000	27.614843 
3415.000000	27.657363 
3414.000000	27.713755 
3413.000000	27.761782 
3412.000000	27.774893 
3411.000000	27.753456 
3410.000000	27.726488 
3409.000000	27.720730 
3408.000000	27.736016 
3407.000000	27.753837 
3406.000000	27.763297 
3405.000000	27.772518 
3404.000000	27.797446 
3403.000000	27.845581 
3402.000000	27.909860 
3401.000000	27.971903 
3400.000000	28.010171 
3399.000000	28.012463 
3398.000000	27.987315 
3397.000000	27.960941 
3396.000000	27.957100 
3395.000000	27.977249 
3394.000000	28.002416 
3393.000000	28.015142 
3392.000000	28.015773 
3391.000000	28.017580 
3390.000000	28.031953 
3389.000000	28.061193 
3388.000000	28.100075 
3387.000000	28.138362 
3386.000000	28.164746 
3385.000000	28.176261 
3384.000000	28.184381 
3383.000000	28.205984 
3382.000000	28.246101 
3381.000000	28.293182 
3380.000000	28.332166 
3379.000000	28.357805 
3378.000000	28.374447 
3377.000000	28.388901 
3376.000000	28.407912 
3375.000000	28.437815 
3374.000000	28.479160 
3373.000000	28.520899 
3372.000000	28.544820 
3371.000000	28.539839 
3370.000000	28.513132 
3369.000000	28.487927 
3368.000000	28.488973 
3367.000000	28.525211 
3366.000000	28.581258 
3365.000000	28.626409 
3364.000000	28.638630 
3363.000000	28.624877 
3362.000000	28.617241 
3361.000000	28.644332 
3360.000000	28.704433 
3359.000000	28.768755 
3358.000000	28.811752 
3357.000000	28.834112 
3356.000000	28.853019 
3355.000000	28.875813 
3354.000000	28.892942 
3353.000000	28.897870 
3352.000000	28.903158 
3351.000000	28.928996 
3350.000000	28.979741 
3349.000000	29.039040 
3348.000000	29.087740 
3347.000000	29.121507 
3346.000000	29.149199 
3345.000000	29.177297 
3344.000000	29.199240 
3343.000000	29.201625 
3342.000000	29.181473 
3341.000000	29.155277 
3340.000000	29.146739 
3339.000000	29.164972 
3338.000000	29.200330 
3337.000000	29.242947 
3336.000000	29.297015 
3335.000000	29.369196 
3334.000000	29.447953 
3333.000000	29.506778 
3332.000000	29.530765 
3331.000000	29.533485 
3330.000000	29.544270 
3329.000000	29.581963 
3328.000000	29.641639 
3327.000000	29.702707 
3326.000000	29.747532 
3325.000000	29.774222 
3324.000000	29.794026 
3323.000000	29.817358 
3322.000000	29.843378 
3321.000000	29.863003 
3320.000000	29.868537 
3319.000000	29.857854 
3318.000000	29.833421 
3317.000000	29.803847 
3316.000000	29.785990 
3315.000000	29.798907 
3314.000000	29.851157 
3313.000000	29.933202 
3312.000000	30.021655 
3311.000000	30.092091 
3310.000000	30.133481 
3309.000000	30.155613 
3308.000000	30.179649 
3307.000000	30.215115 
3306.000000	30.246668 
3305.000000	30.248721 
3304.000000	30.214114 
3303.000000	30.165132 
3302.000000	30.137256 
3301.000000	30.154745 
3300.000000	30.216529 
3299.000000	30.296893 
3298.000000	30.361031 
3297.000000	30.390344 
3296.000000	30.397593 
3295.000000	30.413072 
3294.000000	30.455187 
3293.000000	30.519245 
3292.000000	30.592046 
3291.000000	30.665399 
3290.000000	30.730831 
3289.000000	30.773354 
3288.000000	30.782054 
3287.000000	30.762725 
3286.000000	30.732239 
3285.000000	30.704437 
3284.000000	30.689585 
3283.000000	30.701960 
3282.000000	30.752376 
3281.000000	30.828308 
3280.000000	30.893312 
3279.000000	30.917356 
3278.000000	30.905639 
3277.000000	30.891087 
3276.000000	30.899276 
3275.000000	30.927446 
3274.000000	30.958500 
3273.000000	30.984887 
3272.000000	31.009421 
3271.000000	31.027967 
3270.000000	31.026564 
3269.000000	31.002875 
3268.000000	30.981257 
3267.000000	30.993881 
3266.000000	31.046726 
3265.000000	31.113204 
3264.000000	31.164369 
3263.000000	31.197921 
3262.000000	31.231183 
3261.000000	31.271215 
3260.000000	31.302234 
3259.000000	31.305198 
3258.000000	31.283864 
3257.000000	31.265674 
3256.000000	31.276880 
3255.000000	31.320010 
3254.000000	31.375870 
3253.000000	31.423121 
3252.000000	31.451967 
3251.000000	31.462496 
3250.000000	31.459811 
3249.000000	31.455136 
3248.000000	31.463862 
3247.000000	31.492627 
3246.000000	31.529455 
3245.000000	31.555237 
3244.000000	31.567544 
3243.000000	31.586541 
3242.000000	31.632183 
3241.000000	31.698715 
3240.000000	31.756345 
3239.000000	31.778703 
3238.000000	31.766882 
3237.000000	31.745424 
3236.000000	31.736281 
3235.000000	31.740558 
3234.000000	31.747844 
3233.000000	31.758677 
3232.000000	31.788411 
3231.000000	31.845833 
3230.000000	31.915354 
3229.000000	31.967300 
3228.000000	31.984077 
3227.000000	31.972903 
3226.000000	31.957102 
3225.000000	31.959676 
3224.000000	31.990071 
3223.000000	32.038636 
3222.000000	32.085188 
3221.000000	32.119156 
3220.000000	32.149139 
3219.000000	32.186337 
3218.000000	32.224081 
3217.000000	32.246388 
3216.000000	32.255167 
3215.000000	32.273715 
3214.000000	32.317037 
3213.000000	32.369304 
3212.000000	32.400061 
3211.000000	32.397734 
3210.000000	32.379640 
3209.000000	32.371718 
3208.000000	32.385062 
3207.000000	32.412497 
3206.000000	32.442848 
3205.000000	32.473889 
3204.000000	32.508968 
3203.000000	32.542662 
3202.000000	32.558177 
3201.000000	32.546810 
3200.000000	32.526323 
3199.000000	32.529273 
3198.000000	32.570812 
3197.000000	32.635553 
3196.000000	32.697673 
3195.000000	32.744851 
3194.000000	32.779331 
3193.000000	32.806502 
3192.000000	32.831502 
3191.000000	32.861428 
3190.000000	32.901757 
3189.000000	32.950312 
3188.000000	32.997680 
3187.000000	33.031857 
3186.000000	33.043360 
3185.000000	33.033597 
3184.000000	33.021593 
3183.000000	33.034500 
3182.000000	33.084424 
3181.000000	33.158237 
3180.000000	33.232806 
3179.000000	33.293370 
3178.000000	33.333589 
3177.000000	33.349042 
3176.000000	33.342688 
3175.000000	33.331039 
3174.000000	33.332260 
3173.000000	33.349194 
3172.000000	33.373294 
3171.000000	33.402566 
3170.000000	33.443727 
3169.000000	33.496519 
3168.000000	33.548869 
3167.000000	33.592057 
3166.000000	33.630286 
3165.000000	33.669433 
3164.000000	33.705112 
3163.000000	33.729051 
3162.000000	33.740301 
3161.000000	33.742286 
3160.000000	33.735137 
3159.000000	33.721715 
3158.000000	33.717544 
3157.000000	33.741102 
3156.000000	33.791255 
3155.000000	33.844340 
3154.000000	33.879024 
3153.000000	33.896926 
3152.000000	33.913005 
3151.000000	33.933947 
3150.000000	33.957293 
3149.000000	33.987625 
3148.000000	34.038087 
3147.000000	34.110134 
3146.000000	34.182028 
3145.000000	34.227077 
3144.000000	34.239670 
3143.000000	34.235897 
3142.000000	34.231661 
3141.000000	34.229624 
3140.000000	34.227893 
3139.000000	34.231265 
3138.000000	34.247189 
3137.000000	34.274657 
3136.000000	34.303219 
3135.000000	34.322768 
3134.000000	34.332044 
3133.000000	34.339381 
3132.000000	34.357726 
3131.000000	34.397336 
3130.000000	34.459495 
3129.000000	34.534945 
3128.000000	34.607484 
3127.000000	34.659896 
3126.000000	34.681297 
3125.000000	34.675760 
3124.000000	34.665442 
3123.000000	34.678568 
3122.000000	34.726444 
3121.000000	34.791733 
3120.000000	34.844656 
3119.000000	34.873309 
3118.000000	34.894215 
3117.000000	34.929288 
3116.000000	34.975240 
3115.000000	35.003083 
3114.000000	34.991494 
3113.000000	34.955789 
3112.000000	34.935877 
3111.000000	34.955212 
3110.000000	34.998933 
3109.000000	35.035039 
3108.000000	35.050066 
3107.000000	35.056966 
3106.000000	35.072053 
3105.000000	35.095112 
3104.000000	35.115024 
3103.000000	35.127320 
3102.000000	35.139852 
3101.000000	35.162420 
3100.000000	35.194098 
3099.000000	35.221015 
3098.000000	35.227181 
3097.000000	35.211615 
3096.000000	35.196903 
3095.000000	35.215741 
3094.000000	35.282148 
3093.000000	35.375882 
3092.000000	35.459069 
3091.000000	35.508212 
3090.000000	35.527668 
3089.000000	35.534430 
3088.000000	35.536816 
3087.000000	35.531692 
3086.000000	35.518328 
3085.000000	35.507303 
3084.000000	35.512483 
3083.000000	35.536496 
3082.000000	35.567922 
3081.000000	35.594677 
3080.000000	35.618772 
3079.000000	35.653937 
3078.000000	35.705909 
3077.000000	35.758446 
3076.000000	35.785587 
3075.000000	35.779407 
3074.000000	35.760080 
3073.000000	35.753337 
3072.000000	35.762176 
3071.000000	35.769011 
3070.000000	35.764480 
3069.000000	35.763223 
3068.000000	35.785207 
3067.000000	35.828808 
3066.000000	35.871912 
3065.000000	35.898342 
3064.000000	35.914989 
3063.000000	35.941199 
3062.000000	35.987360 
3061.000000	36.045359 
3060.000000	36.094983 
3059.000000	36.118175 
3058.000000	36.112770 
3057.000000	36.096425 
3056.000000	36.093452 
3055.000000	36.113776 
3054.000000	36.146107 
3053.000000	36.173196 
3052.000000	36.190689 
3051.000000	36.208376 
3050.000000	36.236618 
3049.000000	36.275668 
3048.000000	36.317993 
3047.000000	36.358243 
3046.000000	36.398778 
3045.000000	36.445005 
3044.000000	36.495173 
3043.000000	36.536546 
3042.000000	36.555673 
3041.000000	36.553096 
3040.000000	36.543826 
3039.000000	36.541144 
3038.000000	36.543049 
3037.000000	36.538246 
3036.000000	36.523749 
3035.000000	36.512941 
3034.000000	36.525665 
3033.000000	36.570856 
3032.000000	36.637545 
3031.000000	36.701662 
3030.000000	36.743237 
3029.000000	36.758724 
3028.000000	36.757806 
3027.000000	36.751344 
3026.000000	36.745715 
3025.000000	36.745873 
3024.000000	36.755737 
3023.000000	36.772709 
3022.000000	36.788049 
3021.000000	36.797779 
3020.000000	36.809767 
3019.000000	36.835293 
3018.000000	36.875401 
3017.000000	36.919127 
3016.000000	36.954264 
3015.000000	36.977994 
3014.000000	36.999124 
3013.000000	37.030940 
3012.000000	37.077552 
3011.000000	37.125095 
3010.000000	37.152763 
3009.000000	37.157415 
3008.000000	37.160894 
3007.000000	37.184688 
3006.000000	37.220770 
3005.000000	37.237440 
3004.000000	37.215952 
3003.000000	37.173517 
3002.000000	37.146589 
3001.000000	37.156323 
3000.000000	37.193007 
2999.000000	37.228932 
2998.000000	37.242325 
2997.000000	37.232081 
2996.000000	37.215221 
2995.000000	37.211728 
2994.000000	37.229397 
2993.000000	37.259820 
2992.000000	37.286606 
2991.000000	37.298152 
2990.000000	37.296500 
2989.000000	37.296453 
2988.000000	37.313469 
2987.000000	37.348715 
2986.000000	37.387166 
2985.000000	37.413429 
2984.000000	37.427707 
2983.000000	37.441193 
2982.000000	37.456426 
2981.000000	37.458833 
2980.000000	37.432306 
2979.000000	37.381157 
2978.000000	37.332236 
2977.000000	37.313809 
2976.000000	37.332803 
2975.000000	37.371836 
2974.000000	37.405182 
2973.000000	37.415015 
2972.000000	37.395793 
2971.000000	37.352711 
2970.000000	37.302525 
2969.000000	37.270109 
2968.000000	37.271757 
2967.000000	37.297578 
2966.000000	37.318110 
2965.000000	37.314653 
2964.000000	37.299270 
2963.000000	37.300954 
2962.000000	37.335368 
2961.000000	37.391544 
2960.000000	37.442777 
2959.000000	37.464654 
2958.000000	37.447626 
2957.000000	37.403054 
2956.000000	37.360052 
2955.000000	37.349870 
2954.000000	37.385447 
2953.000000	37.452132 
2952.000000	37.516816 
2951.000000	37.548886 
2950.000000	37.539614 
2949.000000	37.506400 
2948.000000	37.477640 
2947.000000	37.470428 
2946.000000	37.481438 
2945.000000	37.497088 
2944.000000	37.508146 
2943.000000	37.513847 
2942.000000	37.516494 
2941.000000	37.514992 
2940.000000	37.502263 
2939.000000	37.469999 
2938.000000	37.420208 
2937.000000	37.370477 
2936.000000	37.340159 
2935.000000	37.329710 
2934.000000	37.321631 
2933.000000	37.303441 
2932.000000	37.280651 
2931.000000	37.264578 
2930.000000	37.258624 
2929.000000	37.261760 
2928.000000	37.272704 
2927.000000	37.281604 
2926.000000	37.270711 
2925.000000	37.238379 
2924.000000	37.213465 
2923.000000	37.227659 
2922.000000	37.276215 
2921.000000	37.322003 
2920.000000	37.339601 
2919.000000	37.341905 
2918.000000	37.361123 
2917.000000	37.415883 
2916.000000	37.500989 
2915.000000	37.596916 
2914.000000	37.681740 
2913.000000	37.741239 
2912.000000	37.777005 
2911.000000	37.804610 
2910.000000	37.840200 
2909.000000	37.888179 
2908.000000	37.940349 
2907.000000	37.984092 
2906.000000	38.012053 
2905.000000	38.028038 
2904.000000	38.044174 
2903.000000	38.070663 
2902.000000	38.109281 
2901.000000	38.158191 
2900.000000	38.217410 
2899.000000	38.283580 
2898.000000	38.343985 
2897.000000	38.383759 
2896.000000	38.400004 
2895.000000	38.403121 
2894.000000	38.405216 
2893.000000	38.412155 
2892.000000	38.424757 
2891.000000	38.439945 
2890.000000	38.450482 
2889.000000	38.450688 
2888.000000	38.444552 
2887.000000	38.444149 
2886.000000	38.459716 
2885.000000	38.494167 
2884.000000	38.543966 
2883.000000	38.598479 
2882.000000	38.640811 
2881.000000	38.658855 
2880.000000	38.657121 
2879.000000	38.650747 
2878.000000	38.647255 
2877.000000	38.642253 
2876.000000	38.633888 
2875.000000	38.631079 
2874.000000	38.642129 
2873.000000	38.663018 
2872.000000	38.683804 
2871.000000	38.701144 
2870.000000	38.716769 
2869.000000	38.726270 
2868.000000	38.718056 
2867.000000	38.686749 
2866.000000	38.644702 
2865.000000	38.616196 
2864.000000	38.617596 
2863.000000	38.642073 
2862.000000	38.665456 
2861.000000	38.668968 
2860.000000	38.654775 
2859.000000	38.637820 
2858.000000	38.626689 
2857.000000	38.617540 
2856.000000	38.604034 
2855.000000	38.585952 
2854.000000	38.567657 
2853.000000	38.554763 
2852.000000	38.554236 
2851.000000	38.572435 
2850.000000	38.610308 
2849.000000	38.663582 
2848.000000	38.728594 
2847.000000	38.803260 
2846.000000	38.880809 
2845.000000	38.948234 
2844.000000	38.995845 
2843.000000	39.027040 
2842.000000	39.055391 
2841.000000	39.091691 
2840.000000	39.134972 
2839.000000	39.175821 
2838.000000	39.208123 
2837.000000	39.236847 
2836.000000	39.272771 
2835.000000	39.319835 
2834.000000	39.370126 
2833.000000	39.411865 
2832.000000	39.438499 
2831.000000	39.447984 
2830.000000	39.438875 
2829.000000	39.414254 
2828.000000	39.388184 
2827.000000	39.380132 
2826.000000	39.398326 
2825.000000	39.430017 
2824.000000	39.450984 
2823.000000	39.446352 
2822.000000	39.424023 
2821.000000	39.408326 
2820.000000	39.418382 
2819.000000	39.451272 
2818.000000	39.488114 
2817.000000	39.516092 
2816.000000	39.539491 
2815.000000	39.567480 
2814.000000	39.597996 
2813.000000	39.619786 
2812.000000	39.626084 
2811.000000	39.619702 
2810.000000	39.607769 
2809.000000	39.598926 
2808.000000	39.603626 
2807.000000	39.627491 
2806.000000	39.661104 
2805.000000	39.683010 
2804.000000	39.678538 
2803.000000	39.654660 
2802.000000	39.633595 
2801.000000	39.631808 
2800.000000	39.646066 
2799.000000	39.659676 
2798.000000	39.660957 
2797.000000	39.653574 
2796.000000	39.649167 
2795.000000	39.655325 
2794.000000	39.675796 
2793.000000	39.716342 
2792.000000	39.777561 
2791.000000	39.840498 
2790.000000	39.872673 
2789.000000	39.857400 
2788.000000	39.810897 
2787.000000	39.764852 
2786.000000	39.739297 
2785.000000	39.737953 
2784.000000	39.758149 
2783.000000	39.792347 
2782.000000	39.825846 
2781.000000	39.847027 
2780.000000	39.859514 
2779.000000	39.874462 
2778.000000	39.893064 
2777.000000	39.906151 
2776.000000	39.908069 
2775.000000	39.899651 
2774.000000	39.879788 
2773.000000	39.848159 
2772.000000	39.817870 
2771.000000	39.811437 
2770.000000	39.837924 
2769.000000	39.882185 
2768.000000	39.921174 
2767.000000	39.943731 
2766.000000	39.950627 
2765.000000	39.944344 
2764.000000	39.926454 
2763.000000	39.901172 
2762.000000	39.875705 
2761.000000	39.858191 
2760.000000	39.856254 
2759.000000	39.872746 
2758.000000	39.899759 
2757.000000	39.920722 
2756.000000	39.922566 
2755.000000	39.906339 
2754.000000	39.886992 
2753.000000	39.884583 
2752.000000	39.911916 
2751.000000	39.962715 
2750.000000	40.011459 
2749.000000	40.032375 
2748.000000	40.022920 
2747.000000	40.005032 
2746.000000	40.001244 
2745.000000	40.013909 
2744.000000	40.028774 
2743.000000	40.033346 
2742.000000	40.027453 
2741.000000	40.018992 
2740.000000	40.014384 
2739.000000	40.014355 
2738.000000	40.017709 
2737.000000	40.026147 
2736.000000	40.040711 
2735.000000	40.052497 
2734.000000	40.044084 
2733.000000	40.007886 
2732.000000	39.960780 
2731.000000	39.932704 
2730.000000	39.940480 
2729.000000	39.977452 
2728.000000	40.025428 
2727.000000	40.067380 
2726.000000	40.089009 
2725.000000	40.080542 
2724.000000	40.045627 
2723.000000	40.004160 
2722.000000	39.979523 
2721.000000	39.982208 
2720.000000	40.005420 
2719.000000	40.032672 
2718.000000	40.048979 
2717.000000	40.049870 
2716.000000	40.043583 
2715.000000	40.042971 
2714.000000	40.053854 
2713.000000	40.072458 
2712.000000	40.092505 
2711.000000	40.109799 
2710.000000	40.119991 
2709.000000	40.118453 
2708.000000	40.105891 
2707.000000	40.090223 
2706.000000	40.079634 
2705.000000	40.075998 
2704.000000	40.076740 
2703.000000	40.079784 
2702.000000	40.083750 
2701.000000	40.086289 
2700.000000	40.086919 
2699.000000	40.091557 
2698.000000	40.110215 
2697.000000	40.146689 
2696.000000	40.190063 
2695.000000	40.219083 
2694.000000	40.218869 
2693.000000	40.195134 
2692.000000	40.170314 
2691.000000	40.164563 
2690.000000	40.181455 
2689.000000	40.210374 
2688.000000	40.237184 
2687.000000	40.250249 
2686.000000	40.242864 
2685.000000	40.217661 
2684.000000	40.187938 
2683.000000	40.169227 
2682.000000	40.168412 
2681.000000	40.182720 
2680.000000	40.206227 
2679.000000	40.232588 
2678.000000	40.252917 
2677.000000	40.257291 
2676.000000	40.241253 
2675.000000	40.209711 
2674.000000	40.174650 
2673.000000	40.149859 
2672.000000	40.144938 
2671.000000	40.159846 
2670.000000	40.184198 
2669.000000	40.203610 
2668.000000	40.207821 
2667.000000	40.195006 
2666.000000	40.173192 
2665.000000	40.158374 
2664.000000	40.164606 
2663.000000	40.190748 
2662.000000	40.220586 
2661.000000	40.240663 
2660.000000	40.254069 
2659.000000	40.271215 
2658.000000	40.290682 
2657.000000	40.297283 
2656.000000	40.279531 
2655.000000	40.243456 
2654.000000	40.208023 
2653.000000	40.190138 
2652.000000	40.194132 
2651.000000	40.211856 
2650.000000	40.230679 
2649.000000	40.241747 
2648.000000	40.241784 
2647.000000	40.231118 
2646.000000	40.215555 
2645.000000	40.208723 
2644.000000	40.223097 
2643.000000	40.254096 
2642.000000	40.279804 
2641.000000	40.282920 
2640.000000	40.269083 
2639.000000	40.258494 
2638.000000	40.263405 
2637.000000	40.278702 
2636.000000	40.291028 
2635.000000	40.292222 
2634.000000	40.286317 
2633.000000	40.286312 
2632.000000	40.300254 
2631.000000	40.319336 
2630.000000	40.327363 
2629.000000	40.324218 
2628.000000	40.328236 
2627.000000	40.347830 
2626.000000	40.362861 
2625.000000	40.347463 
2624.000000	40.303700 
2623.000000	40.258228 
2622.000000	40.230826 
2621.000000	40.222049 
2620.000000	40.229191 
2619.000000	40.255707 
2618.000000	40.299161 
2617.000000	40.342234 
2616.000000	40.363648 
2615.000000	40.353369 
2614.000000	40.316176 
2613.000000	40.268467 
2612.000000	40.232862 
2611.000000	40.225760 
2610.000000	40.244299 
2609.000000	40.270429 
2608.000000	40.290814 
2607.000000	40.307804 
2606.000000	40.328919 
2605.000000	40.352100 
2604.000000	40.366518 
2603.000000	40.365432 
2602.000000	40.355114 
2601.000000	40.351579 
2600.000000	40.367742 
2599.000000	40.400762 
2598.000000	40.432191 
2597.000000	40.443807 
2596.000000	40.434195 
2595.000000	40.418594 
2594.000000	40.413612 
2593.000000	40.422812 
2592.000000	40.433892 
2591.000000	40.428672 
2590.000000	40.401379 
2589.000000	40.370199 
2588.000000	40.363955 
2587.000000	40.391112 
2586.000000	40.427154 
2585.000000	40.439420 
2584.000000	40.419983 
2583.000000	40.387590 
2582.000000	40.363753 
2581.000000	40.356700 
2580.000000	40.363458 
2579.000000	40.375033 
2578.000000	40.380735 
2577.000000	40.378825 
2576.000000	40.383110 
2575.000000	40.408183 
2574.000000	40.446779 
2573.000000	40.471763 
2572.000000	40.463053 
2571.000000	40.424498 
2570.000000	40.373273 
2569.000000	40.322811 
2568.000000	40.279972 
2567.000000	40.249952 
2566.000000	40.236642 
2565.000000	40.240499 
2564.000000	40.258649 
2563.000000	40.284677 
2562.000000	40.308314 
2561.000000	40.319804 
2560.000000	40.315857 
2559.000000	40.299506 
2558.000000	40.277238 
2557.000000	40.260996 
2556.000000	40.267592 
2555.000000	40.304620 
2554.000000	40.355806 
2553.000000	40.390291 
2552.000000	40.391503 
2551.000000	40.371973 
2550.000000	40.356843 
2549.000000	40.357435 
2548.000000	40.363374 
2547.000000	40.356468 
2546.000000	40.329643 
2545.000000	40.294018 
2544.000000	40.267865 
2543.000000	40.257989 
2542.000000	40.254961 
2541.000000	40.249020 
2540.000000	40.244824 
2539.000000	40.253324 
2538.000000	40.272894 
2537.000000	40.288342 
2536.000000	40.288637 
2535.000000	40.277101 
2534.000000	40.263085 
2533.000000	40.251575 
2532.000000	40.243231 
2531.000000	40.237714 
2530.000000	40.233581 
2529.000000	40.229837 
2528.000000	40.230466 
2527.000000	40.243319 
2526.000000	40.271164 
2525.000000	40.305279 
2524.000000	40.329391 
2523.000000	40.330049 
2522.000000	40.305484 
2521.000000	40.267193 
2520.000000	40.231833 
2519.000000	40.209801 
2518.000000	40.203158 
2517.000000	40.213066 
2516.000000	40.240340 
2515.000000	40.274383 
2514.000000	40.291899 
2513.000000	40.278665 
2512.000000	40.249592 
2511.000000	40.236247 
2510.000000	40.253825 
2509.000000	40.287336 
2508.000000	40.309467 
2507.000000	40.305284 
2506.000000	40.280622 
2505.000000	40.253706 
2504.000000	40.239248 
2503.000000	40.236256 
2502.000000	40.232543 
2501.000000	40.223835 
2500.000000	40.221553 
2499.000000	40.234047 
2498.000000	40.247435 
2497.000000	40.238584 
2496.000000	40.205655 
2495.000000	40.172790 
2494.000000	40.162791 
2493.000000	40.175737 
2492.000000	40.195979 
2491.000000	40.209210 
2490.000000	40.208789 
2489.000000	40.194933 
2488.000000	40.173885 
2487.000000	40.152685 
2486.000000	40.131842 
2485.000000	40.108806 
2484.000000	40.089890 
2483.000000	40.089842 
2482.000000	40.113906 
2481.000000	40.145918 
2480.000000	40.160589 
2479.000000	40.146003 
2478.000000	40.111307 
2477.000000	40.075147 
2476.000000	40.050451 
2475.000000	40.039713 
2474.000000	40.041165 
2473.000000	40.055372 
2472.000000	40.082610 
2471.000000	40.115143 
2470.000000	40.138632 
2469.000000	40.145084 
2468.000000	40.140289 
2467.000000	40.134144 
2466.000000	40.127487 
2465.000000	40.113933 
2464.000000	40.091975 
2463.000000	40.069977 
2462.000000	40.061096 
2461.000000	40.076207 
2460.000000	40.116059 
2459.000000	40.163988 
2458.000000	40.191865 
2457.000000	40.182927 
2456.000000	40.148456 
2455.000000	40.116041 
2454.000000	40.102538 
2453.000000	40.102549 
2452.000000	40.098989 
2451.000000	40.078836 
2450.000000	40.042287 
2449.000000	40.002796 
2448.000000	39.975004 
2447.000000	39.958594 
2446.000000	39.940422 
2445.000000	39.917227 
2444.000000	39.905487 
2443.000000	39.918191 
2442.000000	39.941575 
2441.000000	39.949803 
2440.000000	39.936357 
2439.000000	39.914644 
2438.000000	39.892048 
2437.000000	39.863197 
2436.000000	39.830094 
2435.000000	39.809041 
2434.000000	39.809527 
2433.000000	39.819974 
2432.000000	39.823425 
2431.000000	39.817769 
2430.000000	39.812070 
2429.000000	39.809578 
2428.000000	39.802543 
2427.000000	39.781375 
2426.000000	39.744570 
2425.000000	39.701266 
2424.000000	39.665438 
2423.000000	39.645752 
2422.000000	39.641738 
2421.000000	39.650799 
2420.000000	39.672845 
2419.000000	39.702337 
2418.000000	39.722872 
2417.000000	39.720288 
2416.000000	39.697495 
2415.000000	39.665813 
2414.000000	39.626392 
2413.000000	39.574686 
2412.000000	39.521084 
2411.000000	39.488864 
2410.000000	39.485749 
2409.000000	39.490773 
2408.000000	39.477028 
2407.000000	39.438784 
2406.000000	39.391150 
2405.000000	39.352221 
2404.000000	39.331380 
2403.000000	39.326514 
2402.000000	39.325109 
2401.000000	39.312598 
2400.000000	39.284881 
2399.000000	39.250033 
2398.000000	39.217030 
2397.000000	39.188694 
2396.000000	39.165705 
2395.000000	39.148797 
2394.000000	39.134867 
2393.000000	39.120206 
2392.000000	39.110092 
2391.000000	39.114562 
2390.000000	39.129410 
2389.000000	39.130687 
2388.000000	39.095688 
2387.000000	39.022350 
2386.000000	38.921606 
2385.000000	38.800261 
2384.000000	38.664047 
2383.000000	38.533295 
2382.000000	38.439466 
2381.000000	38.397758 
2380.000000	38.388275 
2379.000000	38.373277 
2378.000000	38.332152 
2377.000000	38.273626 
2376.000000	38.215143 
2375.000000	38.158535 
2374.000000	38.100731 
2373.000000	38.058963 
2372.000000	38.059831 
2371.000000	38.090710 
2370.000000	38.078797 
2369.000000	37.953441 
2368.000000	37.732717 
2367.000000	37.516080 
2366.000000	37.386051 
2365.000000	37.359156 
2364.000000	37.433226 
2363.000000	37.590178 
2362.000000	37.742583 
2361.000000	37.801961 
2360.000000	37.769380 
2359.000000	37.715656 
2358.000000	37.688504 
2357.000000	37.633637 
2356.000000	37.503299 
2355.000000	37.319590 
2354.000000	37.134317 
2353.000000	36.989053 
2352.000000	36.886291 
2351.000000	36.852799 
2350.000000	36.868971 
2349.000000	36.859329 
2348.000000	36.780799 
2347.000000	36.664342 
2346.000000	36.606298 
2345.000000	36.587836 
2344.000000	36.524213 
2343.000000	36.398820 
2342.000000	36.276417 
2341.000000	36.238878 
2340.000000	36.249184 
2339.000000	36.254246 
2338.000000	36.231079 
2337.000000	36.201618 
2336.000000	36.176730 
2335.000000	36.154240 
2334.000000	36.138133 
2333.000000	36.151347 
2332.000000	36.182691 
2331.000000	36.196534 
2330.000000	36.165981 
2329.000000	36.134465 
2328.000000	36.194333 
2327.000000	36.313032 
2326.000000	36.403000 
2325.000000	36.362755 
2324.000000	36.231572 
2323.000000	36.099909 
2322.000000	36.021112 
2321.000000	36.006495 
2320.000000	36.037221 
2319.000000	36.111378 
2318.000000	36.191895 
2317.000000	36.247363 
2316.000000	36.263722 
2315.000000	36.254261 
2314.000000	36.232730 
2313.000000	36.197054 
2312.000000	36.155175 
2311.000000	36.112812 
2310.000000	36.086717 
2309.000000	36.074850 
2308.000000	36.082560 
2307.000000	36.098392 
2306.000000	36.117555 
2305.000000	36.132332 
2304.000000	36.149618 
2303.000000	36.165976 
2302.000000	36.169160 
2301.000000	36.148686 
2300.000000	36.119855 
2299.000000	36.103396 
2298.000000	36.108922 
2297.000000	36.122881 
2296.000000	36.136116 
2295.000000	36.137451 
2294.000000	36.121917 
2293.000000	36.083222 
2292.000000	36.034799 
2291.000000	35.991450 
2290.000000	35.959467 
2289.000000	35.931514 
2288.000000	35.907424 
2287.000000	35.893383 
2286.000000	35.887658 
2285.000000	35.875895 
2284.000000	35.846804 
2283.000000	35.805087 
2282.000000	35.764022 
2281.000000	35.736370 
2280.000000	35.727860 
2279.000000	35.735463 
2278.000000	35.743396 
2277.000000	35.735508 
2276.000000	35.710792 
2275.000000	35.686966 
2274.000000	35.681120 
2273.000000	35.690998 
2272.000000	35.697167 
2271.000000	35.678891 
2270.000000	35.631690 
2269.000000	35.570935 
2268.000000	35.519871 
2267.000000	35.489426 
2266.000000	35.472236 
2265.000000	35.457113 
2264.000000	35.441921 
2263.000000	35.424719 
2262.000000	35.395976 
2261.000000	35.349850 
2260.000000	35.301135 
2259.000000	35.272057 
2258.000000	35.261607 
2257.000000	35.244366 
2256.000000	35.201221 
2255.000000	35.144472 
2254.000000	35.101867 
2253.000000	35.086573 
2252.000000	35.085003 
2251.000000	35.071492 
2250.000000	35.032043 
2249.000000	34.975836 
2248.000000	34.926569 
2247.000000	34.898209 
2246.000000	34.882668 
2245.000000	34.861271 
2244.000000	34.825111 
2243.000000	34.778530 
2242.000000	34.730431 
2241.000000	34.690039 
2240.000000	34.665912 
2239.000000	34.656876 
2238.000000	34.646498 
2237.000000	34.618387 
2236.000000	34.576818 
2235.000000	34.541560 
2234.000000	34.522210 
2233.000000	34.509341 
2232.000000	34.492074 
2231.000000	34.472742 
2230.000000	34.459407 
2229.000000	34.453747 
2228.000000	34.451820 
2227.000000	34.449832 
2226.000000	34.443238 
2225.000000	34.424568 
2224.000000	34.387216 
2223.000000	34.330846 
2222.000000	34.263434 
2221.000000	34.199986 
2220.000000	34.155614 
2219.000000	34.132858 
2218.000000	34.117548 
2217.000000	34.094887 
2216.000000	34.069688 
2215.000000	34.062015 
2214.000000	34.080196 
2213.000000	34.105075 
2212.000000	34.105430 
2211.000000	34.065910 
2210.000000	33.998453 
2209.000000	33.930164 
2208.000000	33.881347 
2207.000000	33.852352 
2206.000000	33.830011 
2205.000000	33.806152 
2204.000000	33.785838 
2203.000000	33.774732 
2202.000000	33.764250 
2201.000000	33.737321 
2200.000000	33.687679 
2199.000000	33.627042 
2198.000000	33.573498 
2197.000000	33.537926 
2196.000000	33.520686 
2195.000000	33.514792 
2194.000000	33.509827 
2193.000000	33.496474 
2192.000000	33.470627 
2191.000000	33.434238 
2190.000000	33.393205 
2189.000000	33.353386 
2188.000000	33.315230 
2187.000000	33.273031 
2186.000000	33.224465 
2185.000000	33.179759 
2184.000000	33.153113 
2183.000000	33.143838 
2182.000000	33.135508 
2181.000000	33.116696 
2180.000000	33.091937 
2179.000000	33.067352 
2178.000000	33.037568 
2177.000000	32.996111 
2176.000000	32.949470 
2175.000000	32.910665 
2174.000000	32.885185 
2173.000000	32.871031 
2172.000000	32.864584 
2171.000000	32.857990 
2170.000000	32.839759 
2169.000000	32.808678 
2168.000000	32.780115 
2167.000000	32.768733 
2166.000000	32.771909 
2165.000000	32.778145 
2164.000000	32.781124 
2163.000000	32.774599 
2162.000000	32.745970 
2161.000000	32.692230 
2160.000000	32.634702 
2159.000000	32.600205 
2158.000000	32.591137 
2157.000000	32.588286 
2156.000000	32.577642 
2155.000000	32.558326 
2154.000000	32.528978 
2153.000000	32.485543 
2152.000000	32.433196 
2151.000000	32.385260 
2150.000000	32.349161 
2149.000000	32.324655 
2148.000000	32.312594 
2147.000000	32.311532 
2146.000000	32.309039 
2145.000000	32.292485 
2144.000000	32.267180 
2143.000000	32.248147 
2142.000000	32.235467 
2141.000000	32.215250 
2140.000000	32.185326 
2139.000000	32.161362 
2138.000000	32.153255 
2137.000000	32.151485 
2136.000000	32.142305 
2135.000000	32.122387 
2134.000000	32.092501 
2133.000000	32.049726 
2132.000000	31.993953 
2131.000000	31.933952 
2130.000000	31.882108 
2129.000000	31.849202 
2128.000000	31.843831 
2127.000000	31.865924 
2126.000000	31.898553 
2125.000000	31.916992 
2124.000000	31.910304 
2123.000000	31.887093 
2122.000000	31.860037 
2121.000000	31.834511 
2120.000000	31.812482 
2119.000000	31.795871 
2118.000000	31.782587 
2117.000000	31.767480 
2116.000000	31.748804 
2115.000000	31.726176 
2114.000000	31.693413 
2113.000000	31.644482 
2112.000000	31.587654 
2111.000000	31.543096 
2110.000000	31.523221 
2109.000000	31.521740 
2108.000000	31.521538 
2107.000000	31.506646 
2106.000000	31.470576 
2105.000000	31.424247 
2104.000000	31.392988 
2103.000000	31.392236 
2102.000000	31.406285 
2101.000000	31.402775 
2100.000000	31.367510 
2099.000000	31.313409 
2098.000000	31.258352 
2097.000000	31.210896 
2096.000000	31.177303 
2095.000000	31.162582 
2094.000000	31.157675 
2093.000000	31.141747 
2092.000000	31.107080 
2091.000000	31.070856 
2090.000000	31.053968 
2089.000000	31.056643 
2088.000000	31.061591 
2087.000000	31.053098 
2086.000000	31.027008 
2085.000000	30.989850 
2084.000000	30.954220 
2083.000000	30.929556 
2082.000000	30.913160 
2081.000000	30.894055 
2080.000000	30.866177 
2079.000000	30.831625 
2078.000000	30.792079 
2077.000000	30.746820 
2076.000000	30.700367 
2075.000000	30.661412 
2074.000000	30.630254 
2073.000000	30.595455 
2072.000000	30.547658 
2071.000000	30.491793 
2070.000000	30.443123 
2069.000000	30.414454 
2068.000000	30.405434 
2067.000000	30.398921 
2066.000000	30.371057 
2065.000000	30.313707 
2064.000000	30.244538 
2063.000000	30.185701 
2062.000000	30.137504 
2061.000000	30.085084 
2060.000000	30.025614 
2059.000000	29.972366 
2058.000000	29.931466 
2057.000000	29.890608 
2056.000000	29.835707 
2055.000000	29.767180 
2054.000000	29.695966 
2053.000000	29.633053 
2052.000000	29.584538 
2051.000000	29.546244 
2050.000000	29.501506 
2049.000000	29.435880 
2048.000000	29.356266 
2047.000000	29.283199 
2046.000000	29.221632 
2045.000000	29.153208 
2044.000000	29.063163 
2043.000000	28.962331 
2042.000000	28.873976 
2041.000000	28.807446 
2040.000000	28.752664 
2039.000000	28.694387 
2038.000000	28.624608 
2037.000000	28.544750 
2036.000000	28.461238 
2035.000000	28.377439 
2034.000000	28.289940 
2033.000000	28.196637 
2032.000000	28.105708 
2031.000000	28.028242 
2030.000000	27.962873 
2029.000000	27.896925 
2028.000000	27.822829 
2027.000000	27.743745 
2026.000000	27.662714 
2025.000000	27.577092 
2024.000000	27.485819 
2023.000000	27.392008 
2022.000000	27.295386 
2021.000000	27.191512 
2020.000000	27.081523 
2019.000000	26.974441 
2018.000000	26.877962 
2017.000000	26.794604 
2016.000000	26.726150 
2015.000000	26.669954 
2014.000000	26.609461 
2013.000000	26.522245 
2012.000000	26.404622 
2011.000000	26.280306 
2010.000000	26.178457 
2009.000000	26.108323 
2008.000000	26.057189 
2007.000000	26.003829 
2006.000000	25.931154 
2005.000000	25.837102 
2004.000000	25.739769 
2003.000000	25.662388 
2002.000000	25.605674 
2001.000000	25.542414 
2000.000000	25.446502 
1999.000000	25.322135 
1998.000000	25.198938 
1997.000000	25.103224 
1996.000000	25.038512 
1995.000000	24.987680 
1994.000000	24.926756 
1993.000000	24.840808 
1992.000000	24.735608 
1991.000000	24.632170 
1990.000000	24.544833 
1989.000000	24.470053 
1988.000000	24.398396 
1987.000000	24.328689 
1986.000000	24.266038 
1985.000000	24.210702 
1984.000000	24.154031 
1983.000000	24.084525 
1982.000000	23.997307 
1981.000000	23.901008 
1980.000000	23.814646 
1979.000000	23.751870 
1978.000000	23.706437 
1977.000000	23.657760 
1976.000000	23.592329 
1975.000000	23.515094 
1974.000000	23.439105 
1973.000000	23.370814 
1972.000000	23.308831 
1971.000000	23.250295 
1970.000000	23.192698 
1969.000000	23.133244 
1968.000000	23.071537 
1967.000000	23.011500 
1966.000000	22.957311 
1965.000000	22.908913 
1964.000000	22.863432 
1963.000000	22.818151 
1962.000000	22.771433 
1961.000000	22.724478 
1960.000000	22.681404 
1959.000000	22.643082 
1958.000000	22.602641 
1957.000000	22.553371 
1956.000000	22.499055 
1955.000000	22.447635 
1954.000000	22.395492 
1953.000000	22.329817 
1952.000000	22.250277 
1951.000000	22.176444 
1950.000000	22.125716 
1949.000000	22.092051 
1948.000000	22.054604 
1947.000000	22.001659 
1946.000000	21.938556 
1945.000000	21.877005 
1944.000000	21.826280 
1943.000000	21.793524 
1942.000000	21.781420 
1941.000000	21.781451 
1940.000000	21.777483 
1939.000000	21.758441 
1938.000000	21.723738 
1937.000000	21.679752 
1936.000000	21.633928 
1935.000000	21.589606 
1934.000000	21.545313 
1933.000000	21.499994 
1932.000000	21.458159 
1931.000000	21.426008 
1930.000000	21.401646 
1929.000000	21.373789 
1928.000000	21.332631 
1927.000000	21.280132 
1926.000000	21.227117 
1925.000000	21.182477 
1924.000000	21.147919 
1923.000000	21.120719 
1922.000000	21.098436 
1921.000000	21.079361 
1920.000000	21.059751 
1919.000000	21.033669 
1918.000000	20.999818 
1917.000000	20.967779 
1916.000000	20.947471 
1915.000000	20.933337 
1914.000000	20.907078 
1913.000000	20.856355 
1912.000000	20.789126 
1911.000000	20.725912 
1910.000000	20.680357 
1909.000000	20.653116 
1908.000000	20.639585 
1907.000000	20.635556 
1906.000000	20.635342 
1905.000000	20.630802 
1904.000000	20.614169 
1903.000000	20.578800 
1902.000000	20.521381 
1901.000000	20.449693 
1900.000000	20.382872 
1899.000000	20.335334 
1898.000000	20.302268 
1897.000000	20.267914 
1896.000000	20.227537 
1895.000000	20.193706 
1894.000000	20.179264 
1893.000000	20.181858 
1892.000000	20.188891 
1891.000000	20.189804 
1890.000000	20.180403 
1889.000000	20.161466 
1888.000000	20.133684 
1887.000000	20.094006 
1886.000000	20.040839 
1885.000000	19.982005 
1884.000000	19.931966 
1883.000000	19.896008 
1882.000000	19.863530 
1881.000000	19.824974 
1880.000000	19.787127 
1879.000000	19.761907 
1878.000000	19.746273 
1877.000000	19.725813 
1876.000000	19.695869 
1875.000000	19.664026 
1874.000000	19.631041 
1873.000000	19.586159 
1872.000000	19.526222 
1871.000000	19.466782 
1870.000000	19.429322 
1869.000000	19.422850 
1868.000000	19.436637 
1867.000000	19.448370 
1866.000000	19.440558 
1865.000000	19.410007 
1864.000000	19.367754 
1863.000000	19.331546 
1862.000000	19.310911 
1861.000000	19.298728 
1860.000000	19.281411 
1859.000000	19.254379 
1858.000000	19.222694 
1857.000000	19.191233 
1856.000000	19.161565 
1855.000000	19.135811 
1854.000000	19.115908 
1853.000000	19.097532 
1852.000000	19.069135 
1851.000000	19.022545 
1850.000000	18.964885 
1849.000000	18.916958 
1848.000000	18.896819 
1847.000000	18.902377 
1846.000000	18.911758 
1845.000000	18.902463 
1844.000000	18.876527 
1843.000000	18.856930 
1842.000000	18.852906 
1841.000000	18.850722 
1840.000000	18.833129 
1839.000000	18.797609 
1838.000000	18.762286 
1837.000000	18.749003 
1836.000000	18.758897 
1835.000000	18.769985 
1834.000000	18.759541 
1833.000000	18.723407 
1832.000000	18.673460 
1831.000000	18.626143 
1830.000000	18.598207 
1829.000000	18.596345 
1828.000000	18.604890 
1827.000000	18.602007 
1826.000000	18.581883 
1825.000000	18.558975 
1824.000000	18.553841 
1823.000000	18.563788 
1822.000000	18.562116 
1821.000000	18.531078 
1820.000000	18.481136 
1819.000000	18.436265 
1818.000000	18.406580 
1817.000000	18.387575 
1816.000000	18.380666 
1815.000000	18.392646 
1814.000000	18.416360 
1813.000000	18.430780 
1812.000000	18.425921 
1811.000000	18.416586 
1810.000000	18.419687 
1809.000000	18.428475 
1808.000000	18.423294 
1807.000000	18.395834 
1806.000000	18.351545 
1805.000000	18.298590 
1804.000000	18.245447 
1803.000000	18.205123 
1802.000000	18.191948 
1801.000000	18.207557 
1800.000000	18.232708 
1799.000000	18.242700 
1798.000000	18.230863 
1797.000000	18.211506 
1796.000000	18.201566 
1795.000000	18.204190 
1794.000000	18.210076 
1793.000000	18.210582 
1792.000000	18.206182 
1791.000000	18.196882 
1790.000000	18.177116 
1789.000000	18.149998 
1788.000000	18.128174 
1787.000000	18.119570 
1786.000000	18.120775 
1785.000000	18.123643 
1784.000000	18.127598 
1783.000000	18.139200 
1782.000000	18.160485 
1781.000000	18.181752 
1780.000000	18.188690 
1779.000000	18.178091 
1778.000000	18.160964 
1777.000000	18.151398 
1776.000000	18.156120 
1775.000000	18.172514 
1774.000000	18.191782 
1773.000000	18.201786 
1772.000000	18.194649 
1771.000000	18.171682 
1770.000000	18.141253 
1769.000000	18.116538 
1768.000000	18.104116 
1767.000000	18.095691 
1766.000000	18.079505 
1765.000000	18.054862 
1764.000000	18.030736 
1763.000000	18.012119 
1762.000000	17.995226 
1761.000000	17.976974 
1760.000000	17.963054 
1759.000000	17.960844 
1758.000000	17.966781 
1757.000000	17.969971 
1756.000000	17.969069 
1755.000000	17.973916 
1754.000000	17.990505 
1753.000000	18.016135 
1752.000000	18.045437 
1751.000000	18.074151 
1750.000000	18.093178 
1749.000000	18.089252 
1748.000000	18.060866 
1747.000000	18.019851 
1746.000000	17.975895 
1745.000000	17.930186 
1744.000000	17.885979 
1743.000000	17.854979 
1742.000000	17.845169 
1741.000000	17.850519 
1740.000000	17.859215 
1739.000000	17.861073 
1738.000000	17.845136 
1737.000000	17.806748 
1736.000000	17.755478 
1735.000000	17.716367 
1734.000000	17.732581 
1733.000000	17.801653 
1732.000000	17.864034 
1731.000000	17.898536 
1730.000000	17.918830 
1729.000000	17.930685 
1728.000000	17.934318 
1727.000000	17.925281 
1726.000000	17.897625 
1725.000000	17.851640 
1724.000000	17.806185 
1723.000000	17.788769 
1722.000000	17.803994 
1721.000000	17.827945 
1720.000000	17.835725 
1719.000000	17.821451 
1718.000000	17.799628 
1717.000000	17.783066 
1716.000000	17.760354 
1715.000000	17.723150 
1714.000000	17.688511 
1713.000000	17.675242 
1712.000000	17.685363 
1711.000000	17.706108 
1710.000000	17.721803 
1709.000000	17.728235 
1708.000000	17.737276 
1707.000000	17.763790 
1706.000000	17.805138 
1705.000000	17.839128 
1704.000000	17.847059 
1703.000000	17.834146 
1702.000000	17.814435 
1701.000000	17.791098 
1700.000000	17.769740 
1699.000000	17.742234 
1698.000000	17.697531 
1697.000000	17.657539 
1696.000000	17.645782 
1695.000000	17.654231 
1694.000000	17.650615 
1693.000000	17.626871 
1692.000000	17.601686 
1691.000000	17.579626 
1690.000000	17.551562 
1689.000000	17.513760 
1688.000000	17.476847 
1687.000000	17.450787 
1686.000000	17.428571 
1685.000000	17.391946 
1684.000000	17.354299 
1683.000000	17.331983 
1682.000000	17.298190 
1681.000000	17.245893 
1680.000000	17.198659 
1679.000000	17.176911 
1678.000000	17.180367 
1677.000000	17.180115 
1676.000000	17.147719 
1675.000000	17.091335 
1674.000000	17.043280 
1673.000000	17.013005 
1672.000000	16.994184 
1671.000000	16.987364 
1670.000000	16.996641 
1669.000000	17.012369 
1668.000000	17.006860 
1667.000000	16.971365 
1666.000000	16.923546 
1665.000000	16.873904 
1664.000000	16.815945 
1663.000000	16.744621 
1662.000000	16.672444 
1661.000000	16.615817 
1660.000000	16.579123 
1659.000000	16.557341 
1658.000000	16.538925 
1657.000000	16.512008 
1656.000000	16.465310 
1655.000000	16.392979 
1654.000000	16.293594 
1653.000000	16.227728 
1652.000000	16.225081 
1651.000000	16.217889 
1650.000000	16.198279 
1649.000000	16.180582 
1648.000000	16.153606 
1647.000000	16.136866 
1646.000000	16.146225 
1645.000000	16.147331 
1644.000000	16.108201 
1643.000000	16.043029 
1642.000000	15.972838 
1641.000000	15.910774 
1640.000000	15.868376 
1639.000000	15.849055 
1638.000000	15.838413 
1637.000000	15.806920 
1636.000000	15.746891 
1635.000000	15.697764 
1634.000000	15.681348 
1633.000000	15.678617 
1632.000000	15.679614 
1631.000000	15.680638 
1630.000000	15.673414 
1629.000000	15.652872 
1628.000000	15.627545 
1627.000000	15.616298 
1626.000000	15.623525 
1625.000000	15.633181 
1624.000000	15.628186 
1623.000000	15.610760 
1622.000000	15.593874 
1621.000000	15.580470 
1620.000000	15.570207 
1619.000000	15.567791 
1618.000000	15.572667 
1617.000000	15.577091 
1616.000000	15.573873 
1615.000000	15.563381 
1614.000000	15.554193 
1613.000000	15.550964 
1612.000000	15.549647 
1611.000000	15.550872 
1610.000000	15.562100 
1609.000000	15.581367 
1608.000000	15.593328 
1607.000000	15.586826 
1606.000000	15.566849 
1605.000000	15.544624 
1604.000000	15.525103 
1603.000000	15.508567 
1602.000000	15.497065 
1601.000000	15.496210 
1600.000000	15.512663 
1599.000000	15.545918 
1598.000000	15.579862 
1597.000000	15.591074 
1596.000000	15.573669 
1595.000000	15.549004 
1594.000000	15.540089 
1593.000000	15.541527 
1592.000000	15.527770 
1591.000000	15.485439 
1590.000000	15.426169 
1589.000000	15.372120 
1588.000000	15.337577 
1587.000000	15.323578 
1586.000000	15.320487 
1585.000000	15.315031 
1584.000000	15.301773 
1583.000000	15.288045 
1582.000000	15.282656 
1581.000000	15.282604 
1580.000000	15.279509 
1579.000000	15.275591 
1578.000000	15.283065 
1577.000000	15.308949 
1576.000000	15.344764 
1575.000000	15.364798 
1574.000000	15.352178 
1573.000000	15.315583 
1572.000000	15.266652 
1571.000000	15.213826 
1570.000000	15.179980 
1569.000000	15.185778 
1568.000000	15.213213 
1567.000000	15.233903 
1566.000000	15.245107 
1565.000000	15.253138 
1564.000000	15.256978 
1563.000000	15.252825 
1562.000000	15.229653 
1561.000000	15.180271 
1560.000000	15.102872 
1559.000000	15.075388 
1558.000000	15.147427 
1557.000000	15.192185 
1556.000000	15.153593 
1555.000000	15.089384 
1554.000000	15.036422 
1553.000000	15.004211 
1552.000000	14.978863 
1551.000000	14.954972 
1550.000000	14.940111 
1549.000000	14.941005 
1548.000000	14.952589 
1547.000000	14.964091 
1546.000000	14.968249 
1545.000000	14.959209 
1544.000000	14.936850 
1543.000000	14.908285 
1542.000000	14.878528 
1541.000000	14.844118 
1540.000000	14.811924 
1539.000000	14.787716 
1538.000000	14.757961 
1537.000000	14.729519 
1536.000000	14.722442 
1535.000000	14.733004 
1534.000000	14.740916 
1533.000000	14.730160 
1532.000000	14.706501 
1531.000000	14.690207 
1530.000000	14.692986 
1529.000000	14.706230 
1528.000000	14.711315 
1527.000000	14.699664 
1526.000000	14.678506 
1525.000000	14.656396 
1524.000000	14.630026 
1523.000000	14.587340 
1522.000000	14.524343 
1521.000000	14.468561 
1520.000000	14.452503 
1519.000000	14.468046 
1518.000000	14.478643 
1517.000000	14.451805 
1516.000000	14.396625 
1515.000000	14.354594 
1514.000000	14.337733 
1513.000000	14.317606 
1512.000000	14.268551 
1511.000000	14.205373 
1510.000000	14.165188 
1509.000000	14.164105 
1508.000000	14.181132 
1507.000000	14.185578 
1506.000000	14.166999 
1505.000000	14.118694 
1504.000000	14.048808 
1503.000000	13.983249 
1502.000000	13.928086 
1501.000000	13.876651 
1500.000000	13.826687 
1499.000000	13.779428 
1498.000000	13.735202 
1497.000000	13.696639 
1496.000000	13.675089 
1495.000000	13.675241 
1494.000000	13.686430 
1493.000000	13.694196 
1492.000000	13.686079 
1491.000000	13.652370 
1490.000000	13.594151 
1489.000000	13.531929 
1488.000000	13.493405 
1487.000000	13.487971 
1486.000000	13.500466 
1485.000000	13.507994 
1484.000000	13.496656 
1483.000000	13.463243 
1482.000000	13.407232 
1481.000000	13.330630 
1480.000000	13.245249 
1479.000000	13.169692 
1478.000000	13.118648 
1477.000000	13.096339 
1476.000000	13.091327 
1475.000000	13.076786 
1474.000000	13.027164 
1473.000000	12.946050 
1472.000000	12.873809 
1471.000000	12.837291 
1470.000000	12.819741 
1469.000000	12.800243 
1468.000000	12.773948 
1467.000000	12.739118 
1466.000000	12.685976 
1465.000000	12.607073 
1464.000000	12.519560 
1463.000000	12.451630 
1462.000000	12.409976 
1461.000000	12.378643 
1460.000000	12.331517 
1459.000000	12.244539 
1458.000000	12.115775 
1457.000000	12.003020 
1456.000000	11.971824 
1455.000000	11.996367 
1454.000000	12.016127 
1453.000000	12.006357 
1452.000000	11.973101 
1451.000000	11.938872 
1450.000000	11.916407 
1449.000000	11.901674 
1448.000000	11.889266 
1447.000000	11.876394 
1446.000000	11.853370 
1445.000000	11.810421 
1444.000000	11.754045 
1443.000000	11.703734 
1442.000000	11.671092 
1441.000000	11.650771 
1440.000000	11.631600 
1439.000000	11.605064 
1438.000000	11.562074 
1437.000000	11.505122 
1436.000000	11.466704 
1435.000000	11.472050 
1434.000000	11.499455 
1433.000000	11.512179 
1432.000000	11.495131 
1431.000000	11.459105 
1430.000000	11.421289 
1429.000000	11.384979 
1428.000000	11.348576 
1427.000000	11.315626 
1426.000000	11.285773 
1425.000000	11.250759 
1424.000000	11.210707 
1423.000000	11.181092 
1422.000000	11.168695 
1421.000000	11.160111 
1420.000000	11.142303 
1419.000000	11.123166 
1418.000000	11.113478 
1417.000000	11.100885 
1416.000000	11.071315 
1415.000000	11.027829 
1414.000000	10.979173 
1413.000000	10.930678 
1412.000000	10.888526 
1411.000000	10.862438 
1410.000000	10.852586 
1409.000000	10.843924 
1408.000000	10.824831 
1407.000000	10.801818 
1406.000000	10.789399 
1405.000000	10.789991 
1404.000000	10.789366 
1403.000000	10.772583 
1402.000000	10.739151 
1401.000000	10.703829 
1400.000000	10.688840 
1399.000000	10.704051 
1398.000000	10.725314 
1397.000000	10.715404 
1396.000000	10.668561 
1395.000000	10.616812 
1394.000000	10.591980 
1393.000000	10.590722 
1392.000000	10.592857 
1391.000000	10.591915 
1390.000000	10.589194 
1389.000000	10.581056 
1388.000000	10.564959 
1387.000000	10.548069 
1386.000000	10.535496 
1385.000000	10.517839 
1384.000000	10.484546 
1383.000000	10.440587 
1382.000000	10.401309 
1381.000000	10.375359 
1380.000000	10.358908 
1379.000000	10.345500 
1378.000000	10.334544 
1377.000000	10.329760 
1376.000000	10.333107 
1375.000000	10.339157 
1374.000000	10.335205 
1373.000000	10.312766 
1372.000000	10.277429 
1371.000000	10.240037 
1370.000000	10.204328 
1369.000000	10.170899 
1368.000000	10.147463 
1367.000000	10.142537 
1366.000000	10.149363 
1365.000000	10.149275 
1364.000000	10.131813 
1363.000000	10.104274 
1362.000000	10.079798 
1361.000000	10.063597 
1360.000000	10.056966 
1359.000000	10.060488 
1358.000000	10.065097 
1357.000000	10.055247 
1356.000000	10.029113 
1355.000000	10.003181 
1354.000000	9.987087  
1353.000000	9.966325  
1352.000000	9.922783  
1351.000000	9.861464  
1350.000000	9.805704  
1349.000000	9.773089  
1348.000000	9.764296  
1347.000000	9.769193  
1346.000000	9.773109  
1345.000000	9.761704  
1344.000000	9.730816  
1343.000000	9.690666  
1342.000000	9.655098  
1341.000000	9.628898  
1340.000000	9.607167  
1339.000000	9.582419  
1338.000000	9.551461  
1337.000000	9.520896  
1336.000000	9.504869  
1335.000000	9.508683  
1334.000000	9.515461  
1333.000000	9.500808  
1332.000000	9.462030  
1331.000000	9.419521  
1330.000000	9.387148  
1329.000000	9.358838  
1328.000000	9.330434  
1327.000000	9.313448  
1326.000000	9.312965  
1325.000000	9.310529  
1324.000000	9.287608  
1323.000000	9.252176  
1322.000000	9.224538  
1321.000000	9.208396  
1320.000000	9.192422  
1319.000000	9.171436  
1318.000000	9.148832  
1317.000000	9.124700  
1316.000000	9.099560  
1315.000000	9.084764  
1314.000000	9.091337  
1313.000000	9.109946  
1312.000000	9.117960  
1311.000000	9.106425  
1310.000000	9.085552  
1309.000000	9.065196  
1308.000000	9.044080  
1307.000000	9.017970  
1306.000000	8.986873  
1305.000000	8.952316  
1304.000000	8.915262  
1303.000000	8.877886  
1302.000000	8.842430  
1301.000000	8.810053  
1300.000000	8.784246  
1299.000000	8.769216  
1298.000000	8.759251  
1297.000000	8.738236  
1296.000000	8.699980  
1295.000000	8.661998  
1294.000000	8.647670  
1293.000000	8.659204  
1292.000000	8.675775  
1291.000000	8.672930  
1290.000000	8.639174  
1289.000000	8.582224  
1288.000000	8.526944  
1287.000000	8.499367  
1286.000000	8.503378  
1285.000000	8.518782  
1284.000000	8.526103  
1283.000000	8.521662  
1282.000000	8.504807  
1281.000000	8.469788  
1280.000000	8.423182  
1279.000000	8.390921  
1278.000000	8.387803  
1277.000000	8.393464  
1276.000000	8.379696  
1275.000000	8.350058  
1274.000000	8.329344  
1273.000000	8.322831  
1272.000000	8.312914  
1271.000000	8.292535  
1270.000000	8.273265  
1269.000000	8.257697  
1268.000000	8.232292  
1267.000000	8.196100  
1266.000000	8.170463  
1265.000000	8.165825  
1264.000000	8.159687  
1263.000000	8.123655  
1262.000000	8.058156  
1261.000000	7.987140  
1260.000000	7.929330  
1259.000000	7.887865  
1258.000000	7.860074  
1257.000000	7.842846  
1256.000000	7.830668  
1255.000000	7.818837  
1254.000000	7.809464  
1253.000000	7.810114  
1252.000000	7.826096  
1251.000000	7.853068  
1250.000000	7.874872  
1249.000000	7.870783  
1248.000000	7.831001  
1247.000000	7.767840  
1246.000000	7.707524  
1245.000000	7.666983  
1244.000000	7.640351  
1243.000000	7.609202  
1242.000000	7.563814  
1241.000000	7.513395  
1240.000000	7.476231  
1239.000000	7.460629  
1238.000000	7.457360  
1237.000000	7.453178  
1236.000000	7.447686  
1235.000000	7.448681  
1234.000000	7.452522  
1233.000000	7.441042  
1232.000000	7.402814  
1231.000000	7.348603  
1230.000000	7.299950  
1229.000000	7.269642  
1228.000000	7.256035  
1227.000000	7.244872  
1226.000000	7.212901  
1225.000000	7.145470  
1224.000000	7.060775  
1223.000000	7.004209  
1222.000000	7.005038  
1221.000000	7.045860  
1220.000000	7.084549  
1219.000000	7.095122  
1218.000000	7.077404  
1217.000000	7.042237  
1216.000000	7.004296  
1215.000000	6.978911  
1214.000000	6.967304  
1213.000000	6.953439  
1212.000000	6.931297  
1211.000000	6.921461  
1210.000000	6.944006  
1209.000000	6.987981  
1208.000000	7.024568  
1207.000000	7.041309  
1206.000000	7.044191  
1205.000000	7.032907  
1204.000000	6.999566  
1203.000000	6.952589  
1202.000000	6.917973  
1201.000000	6.910137  
1200.000000	6.918070  
1199.000000	6.924643  
1198.000000	6.924627  
1197.000000	6.920234  
1196.000000	6.914914  
1195.000000	6.917923  
1194.000000	6.939950  
1193.000000	6.974866  
1192.000000	6.996175  
1191.000000	6.980830  
1190.000000	6.933079  
1189.000000	6.880934  
1188.000000	6.852734  
1187.000000	6.858027  
1186.000000	6.884669  
1185.000000	6.912253  
1184.000000	6.930674  
1183.000000	6.942318  
1182.000000	6.944727  
1181.000000	6.922322  
1180.000000	6.866808  
1179.000000	6.799838  
1178.000000	6.760140  
1177.000000	6.766676  
1176.000000	6.804344  
1175.000000	6.844063  
1174.000000	6.866054  
1173.000000	6.865940  
1172.000000	6.851557  
1171.000000	6.835837  
1170.000000	6.822792  
1169.000000	6.799708  
1168.000000	6.751443  
1167.000000	6.682377  
1166.000000	6.618427  
1165.000000	6.588070  
1164.000000	6.605434  
1163.000000	6.665216  
1162.000000	6.741813  
1161.000000	6.799943  
1160.000000	6.822588  
1159.000000	6.827232  
1158.000000	6.843664  
1157.000000	6.877952  
1156.000000	6.909091  
1155.000000	6.918727  
1154.000000	6.911494  
1153.000000	6.905755  
1152.000000	6.914305  
1151.000000	6.932794  
1150.000000	6.936728  
1149.000000	6.895443  
1148.000000	6.806500  
1147.000000	6.714215  
1146.000000	6.675400  
1145.000000	6.703770  
1144.000000	6.760059  
1143.000000	6.797279  
1142.000000	6.805098  
1141.000000	6.807679  
1140.000000	6.827950  
1139.000000	6.861759  
1138.000000	6.886217  
1137.000000	6.887187  
1136.000000	6.872925  
1135.000000	6.860074  
1134.000000	6.849893  
1133.000000	6.829549  
1132.000000	6.800175  
1131.000000	6.786600  
1130.000000	6.807580  
1129.000000	6.849475  
1128.000000	6.884122  
1127.000000	6.902264  
1126.000000	6.913831  
1125.000000	6.925934  
1124.000000	6.939045  
1123.000000	6.955468  
1122.000000	6.972221  
1121.000000	6.971228  
1120.000000	6.938661  
1119.000000	6.894472  
1118.000000	6.877307  
1117.000000	6.896973  
1116.000000	6.925860  
1115.000000	6.939361  
1114.000000	6.942178  
1113.000000	6.949971  
1112.000000	6.967217  
1111.000000	6.992339  
1110.000000	7.025061  
1109.000000	7.058325  
1108.000000	7.079413  
1107.000000	7.088162  
1106.000000	7.097288  
1105.000000	7.107292  
1104.000000	7.099650  
1103.000000	7.064860  
1102.000000	7.022639  
1101.000000	7.000423  
1100.000000	7.004230  
1099.000000	7.024482  
1098.000000	7.052147  
1097.000000	7.072148  
1096.000000	7.060772  
1095.000000	7.013001  
1094.000000	6.962686  
1093.000000	6.954798  
1092.000000	6.999025  
1091.000000	7.062522  
1090.000000	7.106238  
1089.000000	7.119698  
1088.000000	7.121599  
1087.000000	7.135659  
1086.000000	7.167954  
1085.000000	7.202373  
1084.000000	7.216463  
1083.000000	7.205646  
1082.000000	7.191485  
1081.000000	7.199593  
1080.000000	7.232514  
1079.000000	7.269594  
1078.000000	7.288284  
1077.000000	7.283223  
1076.000000	7.271068  
1075.000000	7.278828  
1074.000000	7.318696  
1073.000000	7.369642  
1072.000000	7.391422  
1071.000000	7.368412  
1070.000000	7.336422  
1069.000000	7.351363  
1068.000000	7.429712  
1067.000000	7.528084  
1066.000000	7.587604  
1065.000000	7.593256  
1064.000000	7.581349  
1063.000000	7.592199  
1062.000000	7.627678  
1061.000000	7.661905  
1060.000000	7.681564  
1059.000000	7.699926  
1058.000000	7.732556  
1057.000000	7.775047  
1056.000000	7.810566  
1055.000000	7.825351  
1054.000000	7.809894  
1053.000000	7.761859  
1052.000000	7.702165  
1051.000000	7.674091  
1050.000000	7.706165  
1049.000000	7.780390  
1048.000000	7.851166  
1047.000000	7.889710  
1046.000000	7.899412  
1045.000000	7.898649  
1044.000000	7.904784  
1043.000000	7.927608  
1042.000000	7.960851  
1041.000000	7.984805  
1040.000000	7.991074  
1039.000000	7.997157  
1038.000000	8.022360  
1037.000000	8.060169  
1036.000000	8.093567  
1035.000000	8.126168  
1034.000000	8.172919  
1033.000000	8.226644  
1032.000000	8.262444  
1031.000000	8.273342  
1030.000000	8.274868  
1029.000000	8.276675  
1028.000000	8.277408  
1027.000000	8.288497  
1026.000000	8.333152  
1025.000000	8.410737  
1024.000000	8.487251  
1023.000000	8.532541  
1022.000000	8.544470  
1021.000000	8.531909  
1020.000000	8.499776  
1019.000000	8.458173  
1018.000000	8.423057  
1017.000000	8.400999  
1016.000000	8.394475  
1015.000000	8.422292  
1014.000000	8.503311  
1013.000000	8.615872  
1012.000000	8.709413  
1011.000000	8.761063  
1010.000000	8.784889  
1009.000000	8.788091  
1008.000000	8.766739  
1007.000000	8.744553  
1006.000000	8.735706  
1005.000000	8.651511  
1004.000000	8.357151  
1003.000000	7.930347  
1002.000000	7.707001  
1001.000000	7.853531  
1000.000000	8.221271  
999.000000	 8.622590  
998.000000	 8.900291  
997.000000	 9.003461  
996.000000	 9.029707  
995.000000	 9.061266  
994.000000	 9.094739  
993.000000	 9.122434  
992.000000	 9.161683  
991.000000	 9.202047  
990.000000	 9.206728  
989.000000	 9.175172  
988.000000	 9.149491  
987.000000	 9.153391  
986.000000	 9.166525  
985.000000	 9.166832  
984.000000	 9.164097  
983.000000	 9.178867  
982.000000	 9.211261  
981.000000	 9.243302  
980.000000	 9.258953  
979.000000	 9.255506  
978.000000	 9.244912  
977.000000	 9.245447  
976.000000	 9.264519  
975.000000	 9.293423  
974.000000	 9.326479  
973.000000	 9.373088  
972.000000	 9.436464  
971.000000	 9.493780  
970.000000	 9.520295  
969.000000	 9.526088  
968.000000	 9.543772  
967.000000	 9.581314  
966.000000	 9.612363  
965.000000	 9.617537  
964.000000	 9.611565  
963.000000	 9.620551  
962.000000	 9.651307  
961.000000	 9.693648  
960.000000	 9.736457  
959.000000	 9.769417  
958.000000	 9.784808  
957.000000	 9.792899  
956.000000	 9.823375  
955.000000	 9.893885  
954.000000	 9.981959  
953.000000	 10.043685 
952.000000	 10.060021 
951.000000	 10.052595 
950.000000	 10.054382 
949.000000	 10.077008 
948.000000	 10.110776 
947.000000	 10.144785 
946.000000	 10.175120 
945.000000	 10.199583 
944.000000	 10.218918 
943.000000	 10.244634 
942.000000	 10.292712 
941.000000	 10.361373 
940.000000	 10.423737 
939.000000	 10.455008 
938.000000	 10.462696 
937.000000	 10.474086 
936.000000	 10.491695 
935.000000	 10.482316 
934.000000	 10.427174 
933.000000	 10.366461 
932.000000	 10.369642 
931.000000	 10.463465 
930.000000	 10.605125 
929.000000	 10.727807 
928.000000	 10.797266 
927.000000	 10.819748 
926.000000	 10.815240 
925.000000	 10.803022 
924.000000	 10.805910 
923.000000	 10.844377 
922.000000	 10.916474 
921.000000	 10.994463 
920.000000	 11.051430 
919.000000	 11.086301 
918.000000	 11.115322 
917.000000	 11.144980 
916.000000	 11.167552 
915.000000	 11.184309 
914.000000	 11.215682 
913.000000	 11.277141 
912.000000	 11.356374 
911.000000	 11.429786 
910.000000	 11.495264 
909.000000	 11.569355 
908.000000	 11.652405 
907.000000	 11.719159 
906.000000	 11.753543 
905.000000	 11.775272 
904.000000	 11.817706 
903.000000	 11.888919 
902.000000	 11.967299 
901.000000	 12.029700 
900.000000	 12.070918 
899.000000	 12.098073 
898.000000	 12.119415 
897.000000	 12.141134 
896.000000	 12.168196 
895.000000	 12.207913 
894.000000	 12.275273 
893.000000	 12.386248 
892.000000	 12.534702 
891.000000	 12.682245 
890.000000	 12.788558 
889.000000	 12.853702 
888.000000	 12.915388 
887.000000	 13.000285 
886.000000	 13.090711 
885.000000	 13.147942 
884.000000	 13.162597 
883.000000	 13.171660 
882.000000	 13.223673 
881.000000	 13.332200 
880.000000	 13.465244 
879.000000	 13.578011 
878.000000	 13.655700 
877.000000	 13.724383 
876.000000	 13.818850 
875.000000	 13.942232 
874.000000	 14.061631 
873.000000	 14.142747 
872.000000	 14.183495 
871.000000	 14.211625 
870.000000	 14.253982 
869.000000	 14.314510 
868.000000	 14.384794 
867.000000	 14.469889 
866.000000	 14.588512 
865.000000	 14.739369 
864.000000	 14.879205 
863.000000	 14.954119 
862.000000	 14.958107 
861.000000	 14.942875 
860.000000	 14.957005 
859.000000	 14.994361 
858.000000	 15.020638 
857.000000	 15.034662 
856.000000	 15.077103 
855.000000	 15.176106 
854.000000	 15.303680 
853.000000	 15.400259 
852.000000	 15.434595 
851.000000	 15.427581 
850.000000	 15.422167 
849.000000	 15.439302 
848.000000	 15.463300 
847.000000	 15.464737 
846.000000	 15.435987 
845.000000	 15.404163 
844.000000	 15.405519 
843.000000	 15.451501 
842.000000	 15.525353 
841.000000	 15.605371 
840.000000	 15.684160 
839.000000	 15.766940 
838.000000	 15.860847 
837.000000	 15.969518 
836.000000	 16.088272 
835.000000	 16.196717 
834.000000	 16.261680 
833.000000	 16.260288 
832.000000	 16.206386 
831.000000	 16.149444 
830.000000	 16.140043 
829.000000	 16.192620 
828.000000	 16.280856 
827.000000	 16.366985 
826.000000	 16.432133 
825.000000	 16.480120 
824.000000	 16.522093 
823.000000	 16.567245 
822.000000	 16.625613 
821.000000	 16.706516 
820.000000	 16.806266 
819.000000	 16.903479 
818.000000	 16.976869 
817.000000	 17.029744 
816.000000	 17.090678 
815.000000	 17.185634 
814.000000	 17.311261 
813.000000	 17.435835 
812.000000	 17.524865 
811.000000	 17.562639 
810.000000	 17.549826 
809.000000	 17.496288 
808.000000	 17.428040 
807.000000	 17.391371 
806.000000	 17.429544 
805.000000	 17.546389 
804.000000	 17.701029 
803.000000	 17.842681 
802.000000	 17.945254 
801.000000	 18.009487 
800.000000	 18.045004 
799.000000	 18.059056 
798.000000	 18.055027 
797.000000	 18.033417 
796.000000	 18.001259 
795.000000	 17.987490 
794.000000	 18.035158 
793.000000	 18.161501 
792.000000	 18.331169 
791.000000	 18.484755 
790.000000	 18.595387 
789.000000	 18.687008 
788.000000	 18.796101 
787.000000	 18.925472 
786.000000	 19.036662 
785.000000	 19.081342 
784.000000	 19.045242 
783.000000	 18.970638 
782.000000	 18.929984 
781.000000	 18.964940 
780.000000	 19.052231 
779.000000	 19.136720 
778.000000	 19.191359 
777.000000	 19.233147 
776.000000	 19.289026 
775.000000	 19.364996 
774.000000	 19.446896 
773.000000	 19.516340 
772.000000	 19.567280 
771.000000	 19.618649 
770.000000	 19.705128 
769.000000	 19.838993 
768.000000	 19.984131 
767.000000	 20.086997 
766.000000	 20.133499 
765.000000	 20.157847 
764.000000	 20.197175 
763.000000	 20.256602 
762.000000	 20.319171 
761.000000	 20.369970 
760.000000	 20.406335 
759.000000	 20.439894 
758.000000	 20.489127 
757.000000	 20.556392 
756.000000	 20.616596 
755.000000	 20.648447 
754.000000	 20.674742 
753.000000	 20.746027 
752.000000	 20.879318 
751.000000	 21.035028 
750.000000	 21.158475 
749.000000	 21.221793 
748.000000	 21.224268 
747.000000	 21.182901 
746.000000	 21.133963 
745.000000	 21.115717 
744.000000	 21.133071 
743.000000	 21.160508 
742.000000	 21.191098 
741.000000	 21.255781 
740.000000	 21.377987 
739.000000	 21.536009 
738.000000	 21.691760 
737.000000	 21.831998 
736.000000	 21.956759 
735.000000	 22.051070 
734.000000	 22.098767 
733.000000	 22.110142 
732.000000	 22.108580 
731.000000	 22.098533 
730.000000	 22.073141 
729.000000	 22.049679 
728.000000	 22.068588 
727.000000	 22.154131 
726.000000	 22.297999 
725.000000	 22.477672 
724.000000	 22.666768 
723.000000	 22.829086 
722.000000	 22.928229 
721.000000	 22.957111 
720.000000	 22.951926 
719.000000	 22.963875 
718.000000	 23.015973 
717.000000	 23.094006 
716.000000	 23.167495 
715.000000	 23.212530 
714.000000	 23.230383 
713.000000	 23.251471 
712.000000	 23.309860 
711.000000	 23.407325 
710.000000	 23.509498 
709.000000	 23.583389 
708.000000	 23.632204 
707.000000	 23.682172 
706.000000	 23.739970 
705.000000	 23.782702 
704.000000	 23.801549 
703.000000	 23.839160 
702.000000	 23.954449 
701.000000	 24.145856 
700.000000	 24.335180 
699.000000	 24.444867 
698.000000	 24.476753 
697.000000	 24.498026 
696.000000	 24.564372 
695.000000	 24.678577 
694.000000	 24.813072 
693.000000	 24.943309 
692.000000	 25.059443 
691.000000	 25.170426 
690.000000	 25.296835 
689.000000	 25.441613 
688.000000	 25.574819 
687.000000	 25.668869 
686.000000	 25.740541 
685.000000	 25.827840 
684.000000	 25.934140 
683.000000	 26.029709 
682.000000	 26.095197 
681.000000	 26.124078 
680.000000	 26.095357 
679.000000	 25.994463 
678.000000	 25.875711 
677.000000	 25.838590 
676.000000	 25.953548 
675.000000	 26.170109 
674.000000	 26.379494 
673.000000	 26.531311 
672.000000	 26.616752 
671.000000	 26.609119 
670.000000	 26.544703 
669.000000	 26.613718 
668.000000	 26.777226 
667.000000	 26.720590 
666.000000	 26.689472 
665.000000	 26.877851 
664.000000	 27.078602 
663.000000	 27.177701 
662.000000	 27.213583 
661.000000	 27.234749 
660.000000	 27.242634 
659.000000	 27.222313 
658.000000	 27.195193 
657.000000	 27.196824 
656.000000	 27.248907 
655.000000	 27.313094 
654.000000	 27.344157 
653.000000	 27.358655 
652.000000	 27.386708 
651.000000	 27.403063 
650.000000	 27.376636 

