PE IR                   SPECTRUM    ASCII       PEDS        1.60        
  -1
~SP.SP
22/02/22
10:11:07.00
22/02/22
10:11:07.00
Administrator

650.000000
4









SPECTRUM 100,CPU32 MAIN 00.02.7000 27-JANUARY-2006 11:32:41
MCT
MIR
OPTKBR
76073
1.000000

4.000000
STRONG
RATIO
SPECTRUM
MAGNITUDE
MIR INT SPHERE
DOUBLE

COMBINED


0


#HDR
-1
-1
#GR
CM-1
%T
0.00002384185791015625
0.0
4000.000000
-1.000000
3351
8
38.113973
7.046441
#DATA
4000.000000	34.045260 
3999.000000	34.016087 
3998.000000	33.986959 
3997.000000	33.949867 
3996.000000	33.930184 
3995.000000	33.942576 
3994.000000	33.972324 
3993.000000	33.990523 
3992.000000	33.980755 
3991.000000	33.953260 
3990.000000	33.934622 
3989.000000	33.944589 
3988.000000	33.981802 
3987.000000	34.028052 
3986.000000	34.062226 
3985.000000	34.071325 
3984.000000	34.053203 
3983.000000	34.013875 
3982.000000	33.964139 
3981.000000	33.916769 
3980.000000	33.882682 
3979.000000	33.866068 
3978.000000	33.862848 
3977.000000	33.866693 
3976.000000	33.877519 
3975.000000	33.901850 
3974.000000	33.943487 
3973.000000	33.995463 
3972.000000	34.042762 
3971.000000	34.071245 
3970.000000	34.073836 
3969.000000	34.051952 
3968.000000	34.015334 
3967.000000	33.978809 
3966.000000	33.953083 
3965.000000	33.936603 
3964.000000	33.919303 
3963.000000	33.896664 
3962.000000	33.878507 
3961.000000	33.880943 
3960.000000	33.909539 
3959.000000	33.951567 
3958.000000	33.986198 
3957.000000	34.001215 
3956.000000	33.999617 
3955.000000	33.990810 
3954.000000	33.977533 
3953.000000	33.953979 
3952.000000	33.916927 
3951.000000	33.876120 
3950.000000	33.851331 
3949.000000	33.857780 
3948.000000	33.893977 
3947.000000	33.943033 
3946.000000	33.983657 
3945.000000	34.001878 
3944.000000	33.998292 
3943.000000	33.987515 
3942.000000	33.985040 
3941.000000	33.990082 
3940.000000	33.986169 
3939.000000	33.960806 
3938.000000	33.921470 
3937.000000	33.889718 
3936.000000	33.881947 
3935.000000	33.897639 
3934.000000	33.924750 
3933.000000	33.953163 
3932.000000	33.980531 
3931.000000	34.004300 
3930.000000	34.014159 
3929.000000	33.999310 
3928.000000	33.963316 
3927.000000	33.925741 
3926.000000	33.906808 
3925.000000	33.912249 
3924.000000	33.933154 
3923.000000	33.956548 
3922.000000	33.972975 
3921.000000	33.976885 
3920.000000	33.967614 
3919.000000	33.952296 
3918.000000	33.941101 
3917.000000	33.934474 
3916.000000	33.918894 
3915.000000	33.883466 
3914.000000	33.837424 
3913.000000	33.804351 
3912.000000	33.800616 
3911.000000	33.821117 
3910.000000	33.847228 
3909.000000	33.867435 
3908.000000	33.886110 
3907.000000	33.913099 
3906.000000	33.947355 
3905.000000	33.974845 
3904.000000	33.985426 
3903.000000	33.985828 
3902.000000	33.989853 
3901.000000	33.999592 
3900.000000	34.004504 
3899.000000	33.998024 
3898.000000	33.985874 
3897.000000	33.976767 
3896.000000	33.972953 
3895.000000	33.967524 
3894.000000	33.949167 
3893.000000	33.913011 
3892.000000	33.873595 
3891.000000	33.859118 
3890.000000	33.883062 
3889.000000	33.930758 
3888.000000	33.975371 
3887.000000	33.992853 
3886.000000	33.975785 
3885.000000	33.941210 
3884.000000	33.916402 
3883.000000	33.917004 
3882.000000	33.941730 
3881.000000	33.976907 
3880.000000	34.005078 
3879.000000	34.011272 
3878.000000	33.989133 
3877.000000	33.947466 
3876.000000	33.903370 
3875.000000	33.868618 
3874.000000	33.848604 
3873.000000	33.846234 
3872.000000	33.859665 
3871.000000	33.879374 
3870.000000	33.893726 
3869.000000	33.898620 
3868.000000	33.902468 
3867.000000	33.920678 
3866.000000	33.957497 
3865.000000	33.995694 
3864.000000	34.010356 
3863.000000	33.994050 
3862.000000	33.965290 
3861.000000	33.946360 
3860.000000	33.942772 
3859.000000	33.946753 
3858.000000	33.949448 
3857.000000	33.945170 
3856.000000	33.931157 
3855.000000	33.913843 
3854.000000	33.911979 
3853.000000	33.927916 
3852.000000	33.925936 
3851.000000	33.890044 
3850.000000	33.852115 
3849.000000	33.835420 
3848.000000	33.832058 
3847.000000	33.827718 
3846.000000	33.817963 
3845.000000	33.805658 
3844.000000	33.793417 
3843.000000	33.781913 
3842.000000	33.772344 
3841.000000	33.761707 
3840.000000	33.743285 
3839.000000	33.718813 
3838.000000	33.703831 
3837.000000	33.715153 
3836.000000	33.756817 
3835.000000	33.821319 
3834.000000	33.892648 
3833.000000	33.944296 
3832.000000	33.950478 
3831.000000	33.908336 
3830.000000	33.844251 
3829.000000	33.795636 
3828.000000	33.783718 
3827.000000	33.800972 
3826.000000	33.827650 
3825.000000	33.853896 
3824.000000	33.878800 
3823.000000	33.893073 
3822.000000	33.879321 
3821.000000	33.838736 
3820.000000	33.802588 
3819.000000	33.800286 
3818.000000	33.829167 
3817.000000	33.856252 
3816.000000	33.848003 
3815.000000	33.804997 
3814.000000	33.758092 
3813.000000	33.731067 
3812.000000	33.721072 
3811.000000	33.710725 
3810.000000	33.691175 
3809.000000	33.670794 
3808.000000	33.663033 
3807.000000	33.670765 
3806.000000	33.682564 
3805.000000	33.687933 
3804.000000	33.689042 
3803.000000	33.685412 
3802.000000	33.668441 
3801.000000	33.638151 
3800.000000	33.607698 
3799.000000	33.597010 
3798.000000	33.624459 
3797.000000	33.685893 
3796.000000	33.749705 
3795.000000	33.779705 
3794.000000	33.760507 
3793.000000	33.705569 
3792.000000	33.644180 
3791.000000	33.601457 
3790.000000	33.587312 
3789.000000	33.595610 
3788.000000	33.610055 
3787.000000	33.615647 
3786.000000	33.608441 
3785.000000	33.597418 
3784.000000	33.597540 
3783.000000	33.617364 
3782.000000	33.651460 
3781.000000	33.683068 
3780.000000	33.695481 
3779.000000	33.685169 
3778.000000	33.663723 
3777.000000	33.644176 
3776.000000	33.629002 
3775.000000	33.613812 
3774.000000	33.596919 
3773.000000	33.581164 
3772.000000	33.566247 
3771.000000	33.544320 
3770.000000	33.510601 
3769.000000	33.474374 
3768.000000	33.453532 
3767.000000	33.458996 
3766.000000	33.483714 
3765.000000	33.508210 
3764.000000	33.519582 
3763.000000	33.522588 
3762.000000	33.531548 
3761.000000	33.554658 
3760.000000	33.588922 
3759.000000	33.623425 
3758.000000	33.645678 
3757.000000	33.651316 
3756.000000	33.647525 
3755.000000	33.644754 
3754.000000	33.646267 
3753.000000	33.647092 
3752.000000	33.639467 
3751.000000	33.617533 
3750.000000	33.581075 
3749.000000	33.540832 
3748.000000	33.524134 
3747.000000	33.555761 
3746.000000	33.614868 
3745.000000	33.638757 
3744.000000	33.581812 
3743.000000	33.462410 
3742.000000	33.353648 
3741.000000	33.319274 
3740.000000	33.356664 
3739.000000	33.418175 
3738.000000	33.463834 
3737.000000	33.483357 
3736.000000	33.486453 
3735.000000	33.487958 
3734.000000	33.498908 
3733.000000	33.516510 
3732.000000	33.524897 
3731.000000	33.512650 
3730.000000	33.486298 
3729.000000	33.460993 
3728.000000	33.437918 
3727.000000	33.405091 
3726.000000	33.362555 
3725.000000	33.334292 
3724.000000	33.347127 
3723.000000	33.401892 
3722.000000	33.467917 
3721.000000	33.504167 
3720.000000	33.490988 
3719.000000	33.439703 
3718.000000	33.372496 
3717.000000	33.304663 
3716.000000	33.243846 
3715.000000	33.194275 
3714.000000	33.157924 
3713.000000	33.133367 
3712.000000	33.119336 
3711.000000	33.118397 
3710.000000	33.133803 
3709.000000	33.163021 
3708.000000	33.193227 
3707.000000	33.211446 
3706.000000	33.213877 
3705.000000	33.204931 
3704.000000	33.189973 
3703.000000	33.170404 
3702.000000	33.144624 
3701.000000	33.109424 
3700.000000	33.066424 
3699.000000	33.027892 
3698.000000	33.010025 
3697.000000	33.016717 
3696.000000	33.036353 
3695.000000	33.052743 
3694.000000	33.059837 
3693.000000	33.059284 
3692.000000	33.044106 
3691.000000	32.994032 
3690.000000	32.902513 
3689.000000	32.807145 
3688.000000	32.760200 
3687.000000	32.771350 
3686.000000	32.810584 
3685.000000	32.843048 
3684.000000	32.840842 
3683.000000	32.793765 
3682.000000	32.715011 
3681.000000	32.631571 
3680.000000	32.568908 
3679.000000	32.540371 
3678.000000	32.542482 
3677.000000	32.553246 
3676.000000	32.547367 
3675.000000	32.513510 
3674.000000	32.456949 
3673.000000	32.396005 
3672.000000	32.353830 
3671.000000	32.337183 
3670.000000	32.333841 
3669.000000	32.328009 
3668.000000	32.309926 
3667.000000	32.281371 
3666.000000	32.252522 
3665.000000	32.228251 
3664.000000	32.202168 
3663.000000	32.162643 
3662.000000	32.103453 
3661.000000	32.034050 
3660.000000	31.977962 
3659.000000	31.957560 
3658.000000	31.975757 
3657.000000	32.010049 
3656.000000	32.027903 
3655.000000	32.012692 
3654.000000	31.976080 
3653.000000	31.937944 
3652.000000	31.896988 
3651.000000	31.834274 
3650.000000	31.748252 
3649.000000	31.668964 
3648.000000	31.618804 
3647.000000	31.581259 
3646.000000	31.530322 
3645.000000	31.461819 
3644.000000	31.387901 
3643.000000	31.322002 
3642.000000	31.272645 
3641.000000	31.242109 
3640.000000	31.220303 
3639.000000	31.183492 
3638.000000	31.108504 
3637.000000	30.992085 
3636.000000	30.854921 
3635.000000	30.727084 
3634.000000	30.631350 
3633.000000	30.577139 
3632.000000	30.561351 
3631.000000	30.566401 
3630.000000	30.562374 
3629.000000	30.528639 
3628.000000	30.473785 
3627.000000	30.416580 
3626.000000	30.364125 
3625.000000	30.314292 
3624.000000	30.259187 
3623.000000	30.195504 
3622.000000	30.129041 
3621.000000	30.062721 
3620.000000	29.990317 
3619.000000	29.906877 
3618.000000	29.818482 
3617.000000	29.734125 
3616.000000	29.654452 
3615.000000	29.571657 
3614.000000	29.481043 
3613.000000	29.391483 
3612.000000	29.319064 
3611.000000	29.268278 
3610.000000	29.227658 
3609.000000	29.185911 
3608.000000	29.145018 
3607.000000	29.112083 
3606.000000	29.081030 
3605.000000	29.033829 
3604.000000	28.959470 
3603.000000	28.865189 
3602.000000	28.768633 
3601.000000	28.681544 
3600.000000	28.602537 
3599.000000	28.521772 
3598.000000	28.433662 
3597.000000	28.346150 
3596.000000	28.277119 
3595.000000	28.238673 
3594.000000	28.223934 
3593.000000	28.210519 
3592.000000	28.181142 
3591.000000	28.136906 
3590.000000	28.087837 
3589.000000	28.038634 
3588.000000	27.986861 
3587.000000	27.931227 
3586.000000	27.870928 
3585.000000	27.800751 
3584.000000	27.717472 
3583.000000	27.629625 
3582.000000	27.551720 
3581.000000	27.490931 
3580.000000	27.440610 
3579.000000	27.385934 
3578.000000	27.318207 
3577.000000	27.242909 
3576.000000	27.175830 
3575.000000	27.128614 
3574.000000	27.097203 
3573.000000	27.064462 
3572.000000	27.016433 
3571.000000	26.957866 
3570.000000	26.910948 
3569.000000	26.897259 
3568.000000	26.915989 
3567.000000	26.937861 
3566.000000	26.928712 
3565.000000	26.881079 
3564.000000	26.813937 
3563.000000	26.748010 
3562.000000	26.688298 
3561.000000	26.627689 
3560.000000	26.561868 
3559.000000	26.496525 
3558.000000	26.441487 
3557.000000	26.404442 
3556.000000	26.391531 
3555.000000	26.407303 
3554.000000	26.447034 
3553.000000	26.491060 
3552.000000	26.512740 
3551.000000	26.496269 
3550.000000	26.447923 
3549.000000	26.392140 
3548.000000	26.357071 
3547.000000	26.354372 
3546.000000	26.366236 
3545.000000	26.358164 
3544.000000	26.313223 
3543.000000	26.249439 
3542.000000	26.198826 
3541.000000	26.174710 
3540.000000	26.165126 
3539.000000	26.152501 
3538.000000	26.131987 
3537.000000	26.110070 
3536.000000	26.091862 
3535.000000	26.075569 
3534.000000	26.058654 
3533.000000	26.043654 
3532.000000	26.035840 
3531.000000	26.036868 
3530.000000	26.043952 
3529.000000	26.056659 
3528.000000	26.080433 
3527.000000	26.115817 
3526.000000	26.144457 
3525.000000	26.137603 
3524.000000	26.086870 
3523.000000	26.021846 
3522.000000	25.985521 
3521.000000	25.992030 
3520.000000	26.016574 
3519.000000	26.025352 
3518.000000	26.005425 
3517.000000	25.966238 
3516.000000	25.924348 
3515.000000	25.893535 
3514.000000	25.882722 
3513.000000	25.892804 
3512.000000	25.915841 
3511.000000	25.943167 
3510.000000	25.973626 
3509.000000	26.008652 
3508.000000	26.041240 
3507.000000	26.057616 
3506.000000	26.050090 
3505.000000	26.022384 
3504.000000	25.984273 
3503.000000	25.949645 
3502.000000	25.939698 
3501.000000	25.974263 
3500.000000	26.047947 
3499.000000	26.119525 
3498.000000	26.139028 
3497.000000	26.093460 
3496.000000	26.024705 
3495.000000	25.993162 
3494.000000	26.023549 
3493.000000	26.091028 
3492.000000	26.152993 
3491.000000	26.181431 
3490.000000	26.166303 
3489.000000	26.108221 
3488.000000	26.023875 
3487.000000	25.952211 
3486.000000	25.935478 
3485.000000	25.983954 
3484.000000	26.063788 
3483.000000	26.124896 
3482.000000	26.141658 
3481.000000	26.128097 
3480.000000	26.115831 
3479.000000	26.122722 
3478.000000	26.143254 
3477.000000	26.162254 
3476.000000	26.172387 
3475.000000	26.179348 
3474.000000	26.193877 
3473.000000	26.220845 
3472.000000	26.256222 
3471.000000	26.292401 
3470.000000	26.323880 
3469.000000	26.347709 
3468.000000	26.361636 
3467.000000	26.365968 
3466.000000	26.367679 
3465.000000	26.378395 
3464.000000	26.402818 
3463.000000	26.427675 
3462.000000	26.427128 
3461.000000	26.386640 
3460.000000	26.322176 
3459.000000	26.270618 
3458.000000	26.259043 
3457.000000	26.285588 
3456.000000	26.329985 
3455.000000	26.375017 
3454.000000	26.413095 
3453.000000	26.438356 
3452.000000	26.444765 
3451.000000	26.435135 
3450.000000	26.423920 
3449.000000	26.424698 
3448.000000	26.437023 
3447.000000	26.449606 
3446.000000	26.455772 
3445.000000	26.463591 
3444.000000	26.490356 
3443.000000	26.546742 
3442.000000	26.623569 
3441.000000	26.693716 
3440.000000	26.731800 
3439.000000	26.734041 
3438.000000	26.716710 
3437.000000	26.697296 
3436.000000	26.682759 
3435.000000	26.675151 
3434.000000	26.678055 
3433.000000	26.690468 
3432.000000	26.701662 
3431.000000	26.701834 
3430.000000	26.697173 
3429.000000	26.707004 
3428.000000	26.745371 
3427.000000	26.807727 
3426.000000	26.872651 
3425.000000	26.913811 
3424.000000	26.917410 
3423.000000	26.897464 
3422.000000	26.889931 
3421.000000	26.917916 
3420.000000	26.961737 
3419.000000	26.978107 
3418.000000	26.952380 
3417.000000	26.917254 
3416.000000	26.913212 
3415.000000	26.943675 
3414.000000	26.981296 
3413.000000	27.008772 
3412.000000	27.036081 
3411.000000	27.076979 
3410.000000	27.125192 
3409.000000	27.162798 
3408.000000	27.182942 
3407.000000	27.194400 
3406.000000	27.206533 
3405.000000	27.218470 
3404.000000	27.223515 
3403.000000	27.217923 
3402.000000	27.203800 
3401.000000	27.188183 
3400.000000	27.182906 
3399.000000	27.202146 
3398.000000	27.253886 
3397.000000	27.331460 
3396.000000	27.414895 
3395.000000	27.482217 
3394.000000	27.520468 
3393.000000	27.529343 
3392.000000	27.520765 
3391.000000	27.515930 
3390.000000	27.534616 
3389.000000	27.578599 
3388.000000	27.625535 
3387.000000	27.645293 
3386.000000	27.624729 
3385.000000	27.574877 
3384.000000	27.516044 
3383.000000	27.464774 
3382.000000	27.437418 
3381.000000	27.453249 
3380.000000	27.519873 
3379.000000	27.616756 
3378.000000	27.705241 
3377.000000	27.760000 
3376.000000	27.785745 
3375.000000	27.801893 
3374.000000	27.819180 
3373.000000	27.837662 
3372.000000	27.861057 
3371.000000	27.899863 
3370.000000	27.954989 
3369.000000	28.004209 
3368.000000	28.013787 
3367.000000	27.968741 
3366.000000	27.891791 
3365.000000	27.830641 
3364.000000	27.824791 
3363.000000	27.881952 
3362.000000	27.980162 
3361.000000	28.086134 
3360.000000	28.171450 
3359.000000	28.220127 
3358.000000	28.231956 
3357.000000	28.222744 
3356.000000	28.217870 
3355.000000	28.239307 
3354.000000	28.292728 
3353.000000	28.362331 
3352.000000	28.417062 
3351.000000	28.428066 
3350.000000	28.390943 
3349.000000	28.337207 
3348.000000	28.320190 
3347.000000	28.378192 
3346.000000	28.501336 
3345.000000	28.632780 
3344.000000	28.708812 
3343.000000	28.706409 
3342.000000	28.654397 
3341.000000	28.598568 
3340.000000	28.558646 
3339.000000	28.522234 
3338.000000	28.477454 
3337.000000	28.439980 
3336.000000	28.440688 
3335.000000	28.491193 
3334.000000	28.570708 
3333.000000	28.647143 
3332.000000	28.704864 
3331.000000	28.750645 
3330.000000	28.797537 
3329.000000	28.847659 
3328.000000	28.890914 
3327.000000	28.918923 
3326.000000	28.937706 
3325.000000	28.963240 
3324.000000	29.004328 
3323.000000	29.053746 
3322.000000	29.098111 
3321.000000	29.131686 
3320.000000	29.156413 
3319.000000	29.173087 
3318.000000	29.179818 
3317.000000	29.178134 
3316.000000	29.174334 
3315.000000	29.173782 
3314.000000	29.177632 
3313.000000	29.185270 
3312.000000	29.196729 
3311.000000	29.214434 
3310.000000	29.246790 
3309.000000	29.305897 
3308.000000	29.391323 
3307.000000	29.475687 
3306.000000	29.518062 
3305.000000	29.500431 
3304.000000	29.448162 
3303.000000	29.409997 
3302.000000	29.419490 
3301.000000	29.475885 
3300.000000	29.554030 
3299.000000	29.624031 
3298.000000	29.663404 
3297.000000	29.661514 
3296.000000	29.622402 
3295.000000	29.566124 
3294.000000	29.523562 
3293.000000	29.521658 
3292.000000	29.566380 
3291.000000	29.639675 
3290.000000	29.716067 
3289.000000	29.780411 
3288.000000	29.826708 
3287.000000	29.847456 
3286.000000	29.838375 
3285.000000	29.814992 
3284.000000	29.808749 
3283.000000	29.835138 
3282.000000	29.873488 
3281.000000	29.890798 
3280.000000	29.883041 
3279.000000	29.880689 
3278.000000	29.911622 
3277.000000	29.967989 
3276.000000	30.014957 
3275.000000	30.028441 
3274.000000	30.019424 
3273.000000	30.020539 
3272.000000	30.050417 
3271.000000	30.093032 
3270.000000	30.113695 
3269.000000	30.095220 
3268.000000	30.055912 
3267.000000	30.031404 
3266.000000	30.042762 
3265.000000	30.084540 
3264.000000	30.138675 
3263.000000	30.192732 
3262.000000	30.245053 
3261.000000	30.299028 
3260.000000	30.354805 
3259.000000	30.403338 
3258.000000	30.428275 
3257.000000	30.418620 
3256.000000	30.382625 
3255.000000	30.345781 
3254.000000	30.330312 
3253.000000	30.336813 
3252.000000	30.349196 
3251.000000	30.357706 
3250.000000	30.372876 
3249.000000	30.412669 
3248.000000	30.477109 
3247.000000	30.541579 
3246.000000	30.579746 
3245.000000	30.591051 
3244.000000	30.599314 
3243.000000	30.623361 
3242.000000	30.656627 
3241.000000	30.679629 
3240.000000	30.686026 
3239.000000	30.689527 
3238.000000	30.707570 
3237.000000	30.745639 
3236.000000	30.797899 
3235.000000	30.854934 
3234.000000	30.904835 
3233.000000	30.930769 
3232.000000	30.917558 
3231.000000	30.866786 
3230.000000	30.803736 
3229.000000	30.763801 
3228.000000	30.767879 
3227.000000	30.809672 
3226.000000	30.865975 
3225.000000	30.917314 
3224.000000	30.958613 
3223.000000	30.994104 
3222.000000	31.027206 
3221.000000	31.056713 
3220.000000	31.080677 
3219.000000	31.102321 
3218.000000	31.131122 
3217.000000	31.175476 
3216.000000	31.231586 
3215.000000	31.280597 
3214.000000	31.300850 
3213.000000	31.286634 
3212.000000	31.256193 
3211.000000	31.241414 
3210.000000	31.266250 
3209.000000	31.327333 
3208.000000	31.392805 
3207.000000	31.428063 
3206.000000	31.429170 
3205.000000	31.425112 
3204.000000	31.439748 
3203.000000	31.458549 
3202.000000	31.446943 
3201.000000	31.399823 
3200.000000	31.356405 
3199.000000	31.360229 
3198.000000	31.415451 
3197.000000	31.489807 
3196.000000	31.550694 
3195.000000	31.587613 
3194.000000	31.606924 
3193.000000	31.620119 
3192.000000	31.638981 
3191.000000	31.671879 
3190.000000	31.718476 
3189.000000	31.769385 
3188.000000	31.812960 
3187.000000	31.843829 
3186.000000	31.867597 
3185.000000	31.896809 
3184.000000	31.936355 
3183.000000	31.971172 
3182.000000	31.976587 
3181.000000	31.947943 
3180.000000	31.915761 
3179.000000	31.923224 
3178.000000	31.987132 
3177.000000	32.083457 
3176.000000	32.169079 
3175.000000	32.214554 
3174.000000	32.220491 
3173.000000	32.211443 
3172.000000	32.216128 
3171.000000	32.246914 
3170.000000	32.292506 
3169.000000	32.329511 
3168.000000	32.342755 
3167.000000	32.337172 
3166.000000	32.332785 
3165.000000	32.347486 
3164.000000	32.381167 
3163.000000	32.416364 
3162.000000	32.437204 
3161.000000	32.446395 
3160.000000	32.458807 
3159.000000	32.480405 
3158.000000	32.502067 
3157.000000	32.514800 
3156.000000	32.521430 
3155.000000	32.530207 
3154.000000	32.546940 
3153.000000	32.578841 
3152.000000	32.635165 
3151.000000	32.713467 
3150.000000	32.791262 
3149.000000	32.841533 
3148.000000	32.854139 
3147.000000	32.836590 
3146.000000	32.801517 
3145.000000	32.764443 
3144.000000	32.748275 
3143.000000	32.773783 
3142.000000	32.840425 
3141.000000	32.923312 
3140.000000	32.991940 
3139.000000	33.029116 
3138.000000	33.034626 
3137.000000	33.019413 
3136.000000	32.998710 
3135.000000	32.985291 
3134.000000	32.985797 
3133.000000	33.002734 
3132.000000	33.036069 
3131.000000	33.080100 
3130.000000	33.124233 
3129.000000	33.162748 
3128.000000	33.199912 
3127.000000	33.239516 
3126.000000	33.274111 
3125.000000	33.293253 
3124.000000	33.299104 
3123.000000	33.304222 
3122.000000	33.315637 
3121.000000	33.330925 
3120.000000	33.349302 
3119.000000	33.375631 
3118.000000	33.410752 
3117.000000	33.446257 
3116.000000	33.472184 
3115.000000	33.484380 
3114.000000	33.484016 
3113.000000	33.477596 
3112.000000	33.478818 
3111.000000	33.501868 
3110.000000	33.548496 
3109.000000	33.605787 
3108.000000	33.658032 
3107.000000	33.695793 
3106.000000	33.714347 
3105.000000	33.713550 
3104.000000	33.703231 
3103.000000	33.699928 
3102.000000	33.711004 
3101.000000	33.726617 
3100.000000	33.733437 
3099.000000	33.732274 
3098.000000	33.736289 
3097.000000	33.755541 
3096.000000	33.789812 
3095.000000	33.834343 
3094.000000	33.884783 
3093.000000	33.934362 
3092.000000	33.971480 
3091.000000	33.985374 
3090.000000	33.975394 
3089.000000	33.953831 
3088.000000	33.938760 
3087.000000	33.943088 
3086.000000	33.968915 
3085.000000	34.009509 
3084.000000	34.054578 
3083.000000	34.095602 
3082.000000	34.130497 
3081.000000	34.163432 
3080.000000	34.196027 
3079.000000	34.219574 
3078.000000	34.223754 
3077.000000	34.215498 
3076.000000	34.218959 
3075.000000	34.248369 
3074.000000	34.287545 
3073.000000	34.307361 
3072.000000	34.301021 
3071.000000	34.290879 
3070.000000	34.299980 
3069.000000	34.327037 
3068.000000	34.352931 
3067.000000	34.363044 
3066.000000	34.357387 
3065.000000	34.344661 
3064.000000	34.333896 
3063.000000	34.332300 
3062.000000	34.346532 
3061.000000	34.381267 
3060.000000	34.432810 
3059.000000	34.485332 
3058.000000	34.521046 
3057.000000	34.539102 
3056.000000	34.558337 
3055.000000	34.594265 
3054.000000	34.639179 
3053.000000	34.673836 
3052.000000	34.692689 
3051.000000	34.704629 
3050.000000	34.712841 
3049.000000	34.710821 
3048.000000	34.701436 
3047.000000	34.703614 
3046.000000	34.730735 
3045.000000	34.773192 
3044.000000	34.812125 
3043.000000	34.842089 
3042.000000	34.869584 
3041.000000	34.894994 
3040.000000	34.909078 
3039.000000	34.908295 
3038.000000	34.903638 
3037.000000	34.909284 
3036.000000	34.926546 
3035.000000	34.943667 
3034.000000	34.951585 
3033.000000	34.956225 
3032.000000	34.970565 
3031.000000	34.994222 
3030.000000	35.008288 
3029.000000	34.997281 
3028.000000	34.971266 
3027.000000	34.956616 
3026.000000	34.966323 
3025.000000	34.989401 
3024.000000	35.011248 
3023.000000	35.034258 
3022.000000	35.072294 
3021.000000	35.132012 
3020.000000	35.205504 
3019.000000	35.275976 
3018.000000	35.325516 
3017.000000	35.342732 
3016.000000	35.329998 
3015.000000	35.302850 
3014.000000	35.279737 
3013.000000	35.272728 
3012.000000	35.284765 
3011.000000	35.307924 
3010.000000	35.324385 
3009.000000	35.319802 
3008.000000	35.300832 
3007.000000	35.291592 
3006.000000	35.307407 
3005.000000	35.339029 
3004.000000	35.368436 
3003.000000	35.391365 
3002.000000	35.414732 
3001.000000	35.438931 
3000.000000	35.455854 
2999.000000	35.463328 
2998.000000	35.470213 
2997.000000	35.484631 
2996.000000	35.504066 
2995.000000	35.519483 
2994.000000	35.525392 
2993.000000	35.525207 
2992.000000	35.529335 
2991.000000	35.546422 
2990.000000	35.572609 
2989.000000	35.591247 
2988.000000	35.588115 
2987.000000	35.566345 
2986.000000	35.543496 
2985.000000	35.536505 
2984.000000	35.551986 
2983.000000	35.585366 
2982.000000	35.622027 
2981.000000	35.643005 
2980.000000	35.638717 
2979.000000	35.617320 
2978.000000	35.594189 
2977.000000	35.576137 
2976.000000	35.562924 
2975.000000	35.558866 
2974.000000	35.568957 
2973.000000	35.583888 
2972.000000	35.585282 
2971.000000	35.572442 
2970.000000	35.570005 
2969.000000	35.596598 
2968.000000	35.634612 
2967.000000	35.644891 
2966.000000	35.610017 
2965.000000	35.552128 
2964.000000	35.507636 
2963.000000	35.494104 
2962.000000	35.501855 
2961.000000	35.508472 
2960.000000	35.497489 
2959.000000	35.470337 
2958.000000	35.446924 
2957.000000	35.452581 
2956.000000	35.499191 
2955.000000	35.575689 
2954.000000	35.654189 
2953.000000	35.704618 
2952.000000	35.709931 
2951.000000	35.676843 
2950.000000	35.633951 
2949.000000	35.611559 
2948.000000	35.617374 
2947.000000	35.632963 
2946.000000	35.635114 
2945.000000	35.615861 
2944.000000	35.580276 
2943.000000	35.534987 
2942.000000	35.488574 
2941.000000	35.458128 
2940.000000	35.461263 
2939.000000	35.497059 
2938.000000	35.541983 
2937.000000	35.569009 
2936.000000	35.567705 
2935.000000	35.545918 
2934.000000	35.518016 
2933.000000	35.494452 
2932.000000	35.477068 
2931.000000	35.460491 
2930.000000	35.441481 
2929.000000	35.428273 
2928.000000	35.434682 
2927.000000	35.461260 
2926.000000	35.488013 
2925.000000	35.491583 
2924.000000	35.467655 
2923.000000	35.433626 
2922.000000	35.413413 
2921.000000	35.421750 
2920.000000	35.456646 
2919.000000	35.500062 
2918.000000	35.531043 
2917.000000	35.547230 
2916.000000	35.571407 
2915.000000	35.629694 
2914.000000	35.722975 
2913.000000	35.824101 
2912.000000	35.901162 
2911.000000	35.939494 
2910.000000	35.946321 
2909.000000	35.944336 
2908.000000	35.959838 
2907.000000	36.006050 
2906.000000	36.071892 
2905.000000	36.131007 
2904.000000	36.164992 
2903.000000	36.176319 
2902.000000	36.181768 
2901.000000	36.199612 
2900.000000	36.240473 
2899.000000	36.299231 
2898.000000	36.352416 
2897.000000	36.372824 
2896.000000	36.355453 
2895.000000	36.325343 
2894.000000	36.315080 
2893.000000	36.337188 
2892.000000	36.380594 
2891.000000	36.426772 
2890.000000	36.462643 
2889.000000	36.482522 
2888.000000	36.487572 
2887.000000	36.485408 
2886.000000	36.484980 
2885.000000	36.488869 
2884.000000	36.491490 
2883.000000	36.485094 
2882.000000	36.467484 
2881.000000	36.446506 
2880.000000	36.438561 
2879.000000	36.458479 
2878.000000	36.505090 
2877.000000	36.557362 
2876.000000	36.589887 
2875.000000	36.593179 
2874.000000	36.576389 
2873.000000	36.551319 
2872.000000	36.520517 
2871.000000	36.483990 
2870.000000	36.451777 
2869.000000	36.441619 
2868.000000	36.462075 
2867.000000	36.502485 
2866.000000	36.542576 
2865.000000	36.569931 
2864.000000	36.584561 
2863.000000	36.588190 
2862.000000	36.576367 
2861.000000	36.545780 
2860.000000	36.506229 
2859.000000	36.478673 
2858.000000	36.478685 
2857.000000	36.502382 
2856.000000	36.528475 
2855.000000	36.533933 
2854.000000	36.510785 
2853.000000	36.472689 
2852.000000	36.444413 
2851.000000	36.440550 
2850.000000	36.454220 
2849.000000	36.470905 
2848.000000	36.493297 
2847.000000	36.544187 
2846.000000	36.639129 
2845.000000	36.760803 
2844.000000	36.867754 
2843.000000	36.929773 
2842.000000	36.951195 
2841.000000	36.961170 
2840.000000	36.986810 
2839.000000	37.036239 
2838.000000	37.100066 
2837.000000	37.161637 
2836.000000	37.207355 
2835.000000	37.232998 
2834.000000	37.242957 
2833.000000	37.242359 
2832.000000	37.230743 
2831.000000	37.206576 
2830.000000	37.177448 
2829.000000	37.160547 
2828.000000	37.169506 
2827.000000	37.202889 
2826.000000	37.248222 
2825.000000	37.293921 
2824.000000	37.333106 
2823.000000	37.359163 
2822.000000	37.365917 
2821.000000	37.354870 
2820.000000	37.337327 
2819.000000	37.326045 
2818.000000	37.326808 
2817.000000	37.338735 
2816.000000	37.358776 
2815.000000	37.383175 
2814.000000	37.407291 
2813.000000	37.427440 
2812.000000	37.443041 
2811.000000	37.456790 
2810.000000	37.473581 
2809.000000	37.496866 
2808.000000	37.521144 
2807.000000	37.529537 
2806.000000	37.507911 
2805.000000	37.465543 
2804.000000	37.434235 
2803.000000	37.438677 
2802.000000	37.470739 
2801.000000	37.499443 
2800.000000	37.504260 
2799.000000	37.492414 
2798.000000	37.485775 
2797.000000	37.498937 
2796.000000	37.530330 
2795.000000	37.566184 
2794.000000	37.589542 
2793.000000	37.591588 
2792.000000	37.579438 
2791.000000	37.570248 
2790.000000	37.574328 
2789.000000	37.585730 
2788.000000	37.591325 
2787.000000	37.586194 
2786.000000	37.577180 
2785.000000	37.573915 
2784.000000	37.580294 
2783.000000	37.593279 
2782.000000	37.605308 
2781.000000	37.607761 
2780.000000	37.597247 
2779.000000	37.581251 
2778.000000	37.573976 
2777.000000	37.582121 
2776.000000	37.596593 
2775.000000	37.603790 
2774.000000	37.605177 
2773.000000	37.618261 
2772.000000	37.653547 
2771.000000	37.695888 
2770.000000	37.716837 
2769.000000	37.705048 
2768.000000	37.677719 
2767.000000	37.660791 
2766.000000	37.664396 
2765.000000	37.679995 
2764.000000	37.694714 
2763.000000	37.702209 
2762.000000	37.702781 
2761.000000	37.699546 
2760.000000	37.695567 
2759.000000	37.692117 
2758.000000	37.689538 
2757.000000	37.690768 
2756.000000	37.701640 
2755.000000	37.723959 
2754.000000	37.748286 
2753.000000	37.757425 
2752.000000	37.740830 
2751.000000	37.707849 
2750.000000	37.685735 
2749.000000	37.699697 
2748.000000	37.749119 
2747.000000	37.803561 
2746.000000	37.827588 
2745.000000	37.811797 
2744.000000	37.778107 
2743.000000	37.755339 
2742.000000	37.754908 
2741.000000	37.769741 
2740.000000	37.787222 
2739.000000	37.796944 
2738.000000	37.791661 
2737.000000	37.770483 
2736.000000	37.742892 
2735.000000	37.725088 
2734.000000	37.729595 
2733.000000	37.757121 
2732.000000	37.795442 
2731.000000	37.825578 
2730.000000	37.834113 
2729.000000	37.824434 
2728.000000	37.814033 
2727.000000	37.816620 
2726.000000	37.828071 
2725.000000	37.833306 
2724.000000	37.825250 
2723.000000	37.812515 
2722.000000	37.808587 
2721.000000	37.818543 
2720.000000	37.838284 
2719.000000	37.862031 
2718.000000	37.884898 
2717.000000	37.898082 
2716.000000	37.888509 
2715.000000	37.850801 
2714.000000	37.799670 
2713.000000	37.762949 
2712.000000	37.756811 
2711.000000	37.770976 
2710.000000	37.782098 
2709.000000	37.777893 
2708.000000	37.763065 
2707.000000	37.747224 
2706.000000	37.736973 
2705.000000	37.737933 
2704.000000	37.753445 
2703.000000	37.779353 
2702.000000	37.808642 
2701.000000	37.842216 
2700.000000	37.885022 
2699.000000	37.929266 
2698.000000	37.953655 
2697.000000	37.946589 
2696.000000	37.921799 
2695.000000	37.903809 
2694.000000	37.904595 
2693.000000	37.920615 
2692.000000	37.944017 
2691.000000	37.966495 
2690.000000	37.977486 
2689.000000	37.970031 
2688.000000	37.948527 
2687.000000	37.924134 
2686.000000	37.903571 
2685.000000	37.887389 
2684.000000	37.876002 
2683.000000	37.870121 
2682.000000	37.866244 
2681.000000	37.858455 
2680.000000	37.846223 
2679.000000	37.836902 
2678.000000	37.839212 
2677.000000	37.854627 
2676.000000	37.874157 
2675.000000	37.884891 
2674.000000	37.883580 
2673.000000	37.882261 
2672.000000	37.893714 
2671.000000	37.912406 
2670.000000	37.919959 
2669.000000	37.911561 
2668.000000	37.905225 
2667.000000	37.918933 
2666.000000	37.949136 
2665.000000	37.979070 
2664.000000	37.997351 
2663.000000	37.998598 
2662.000000	37.977402 
2661.000000	37.937251 
2660.000000	37.899389 
2659.000000	37.886729 
2658.000000	37.899668 
2657.000000	37.920039 
2656.000000	37.937148 
2655.000000	37.956236 
2654.000000	37.980516 
2653.000000	37.999286 
2652.000000	38.000713 
2651.000000	37.988336 
2650.000000	37.978293 
2649.000000	37.982609 
2648.000000	37.997275 
2647.000000	38.004865 
2646.000000	37.990137 
2645.000000	37.956277 
2644.000000	37.923271 
2643.000000	37.906782 
2642.000000	37.902866 
2641.000000	37.899051 
2640.000000	37.895101 
2639.000000	37.903349 
2638.000000	37.930485 
2637.000000	37.967902 
2636.000000	38.000021 
2635.000000	38.015318 
2634.000000	38.010748 
2633.000000	37.993522 
2632.000000	37.977884 
2631.000000	37.972431 
2630.000000	37.971382 
2629.000000	37.965742 
2628.000000	37.960993 
2627.000000	37.973518 
2626.000000	38.008918 
2625.000000	38.053427 
2624.000000	38.088525 
2623.000000	38.105802 
2622.000000	38.106213 
2621.000000	38.094891 
2620.000000	38.081569 
2619.000000	38.077823 
2618.000000	38.086843 
2617.000000	38.099474 
2616.000000	38.105025 
2615.000000	38.103303 
2614.000000	38.102635 
2613.000000	38.108045 
2612.000000	38.113973 
2611.000000	38.108281 
2610.000000	38.083970 
2609.000000	38.048643 
2608.000000	38.020452 
2607.000000	38.011434 
2606.000000	38.016753 
2605.000000	38.023950 
2604.000000	38.029183 
2603.000000	38.037698 
2602.000000	38.050710 
2601.000000	38.060829 
2600.000000	38.061825 
2599.000000	38.055626 
2598.000000	38.047153 
2597.000000	38.038423 
2596.000000	38.030964 
2595.000000	38.028810 
2594.000000	38.034527 
2593.000000	38.044034 
2592.000000	38.048154 
2591.000000	38.039236 
2590.000000	38.016985 
2589.000000	37.990171 
2588.000000	37.972408 
2587.000000	37.973486 
2586.000000	37.993538 
2585.000000	38.025069 
2584.000000	38.058065 
2583.000000	38.082221 
2582.000000	38.089228 
2581.000000	38.078195 
2580.000000	38.057449 
2579.000000	38.037711 
2578.000000	38.025297 
2577.000000	38.023552 
2576.000000	38.035245 
2575.000000	38.057691 
2574.000000	38.079027 
2573.000000	38.085985 
2572.000000	38.074850 
2571.000000	38.051855 
2570.000000	38.026713 
2569.000000	38.009838 
2568.000000	38.009850 
2567.000000	38.025643 
2566.000000	38.043559 
2565.000000	38.049362 
2564.000000	38.041043 
2563.000000	38.025185 
2562.000000	38.006608 
2561.000000	37.989921 
2560.000000	37.985263 
2559.000000	37.999687 
2558.000000	38.024018 
2557.000000	38.039653 
2556.000000	38.038946 
2555.000000	38.028915 
2554.000000	38.015343 
2553.000000	37.995867 
2552.000000	37.971701 
2551.000000	37.953862 
2550.000000	37.950716 
2549.000000	37.957062 
2548.000000	37.961647 
2547.000000	37.959557 
2546.000000	37.952103 
2545.000000	37.940827 
2544.000000	37.928609 
2543.000000	37.923089 
2542.000000	37.931647 
2541.000000	37.952160 
2540.000000	37.971993 
2539.000000	37.977681 
2538.000000	37.966695 
2537.000000	37.951573 
2536.000000	37.951430 
2535.000000	37.975441 
2534.000000	38.013342 
2533.000000	38.044153 
2532.000000	38.054458 
2531.000000	38.046566 
2530.000000	38.030973 
2529.000000	38.016014 
2528.000000	38.005236 
2527.000000	37.999641 
2526.000000	37.998702 
2525.000000	37.999626 
2524.000000	37.997021 
2523.000000	37.984914 
2522.000000	37.961891 
2521.000000	37.934838 
2520.000000	37.914200 
2519.000000	37.904302 
2518.000000	37.902148 
2517.000000	37.906512 
2516.000000	37.921546 
2515.000000	37.947823 
2514.000000	37.976261 
2513.000000	37.995986 
2512.000000	38.002455 
2511.000000	37.993135 
2510.000000	37.963913 
2509.000000	37.919397 
2508.000000	37.880412 
2507.000000	37.868971 
2506.000000	37.886333 
2505.000000	37.913340 
2504.000000	37.929709 
2503.000000	37.926425 
2502.000000	37.905851 
2501.000000	37.881997 
2500.000000	37.876666 
2499.000000	37.900322 
2498.000000	37.935864 
2497.000000	37.953942 
2496.000000	37.946090 
2495.000000	37.930259 
2494.000000	37.921373 
2493.000000	37.911129 
2492.000000	37.884464 
2491.000000	37.844600 
2490.000000	37.810919 
2489.000000	37.797555 
2488.000000	37.802480 
2487.000000	37.814029 
2486.000000	37.820737 
2485.000000	37.816346 
2484.000000	37.801865 
2483.000000	37.784703 
2482.000000	37.774232 
2481.000000	37.777363 
2480.000000	37.795961 
2479.000000	37.823996 
2478.000000	37.847144 
2477.000000	37.850857 
2476.000000	37.832295 
2475.000000	37.802573 
2474.000000	37.776218 
2473.000000	37.760409 
2472.000000	37.754233 
2471.000000	37.754671 
2470.000000	37.761792 
2469.000000	37.779399 
2468.000000	37.809679 
2467.000000	37.844903 
2466.000000	37.866517 
2465.000000	37.857431 
2464.000000	37.816596 
2463.000000	37.760796 
2462.000000	37.714003 
2461.000000	37.695083 
2460.000000	37.708579 
2459.000000	37.740159 
2458.000000	37.764190 
2457.000000	37.763575 
2456.000000	37.743471 
2455.000000	37.722609 
2454.000000	37.713541 
2453.000000	37.715078 
2452.000000	37.718664 
2451.000000	37.714681 
2450.000000	37.696189 
2449.000000	37.665758 
2448.000000	37.637907 
2447.000000	37.627316 
2446.000000	37.635313 
2445.000000	37.653529 
2444.000000	37.676208 
2443.000000	37.698553 
2442.000000	37.706700 
2441.000000	37.685091 
2440.000000	37.638227 
2439.000000	37.593367 
2438.000000	37.574676 
2437.000000	37.582097 
2436.000000	37.600352 
2435.000000	37.619744 
2434.000000	37.639288 
2433.000000	37.655049 
2432.000000	37.656930 
2431.000000	37.640059 
2430.000000	37.614908 
2429.000000	37.601852 
2428.000000	37.613250 
2427.000000	37.640026 
2426.000000	37.658414 
2425.000000	37.652598 
2424.000000	37.628888 
2423.000000	37.604790 
2422.000000	37.588094 
2421.000000	37.573137 
2420.000000	37.555045 
2419.000000	37.538486 
2418.000000	37.530576 
2417.000000	37.531962 
2416.000000	37.537432 
2415.000000	37.540273 
2414.000000	37.534158 
2413.000000	37.515879 
2412.000000	37.489310 
2411.000000	37.463663 
2410.000000	37.445634 
2409.000000	37.434519 
2408.000000	37.424232 
2407.000000	37.407197 
2406.000000	37.378076 
2405.000000	37.339545 
2404.000000	37.305297 
2403.000000	37.291473 
2402.000000	37.301221 
2401.000000	37.319662 
2400.000000	37.326672 
2399.000000	37.314532 
2398.000000	37.292928 
2397.000000	37.277704 
2396.000000	37.274918 
2395.000000	37.276101 
2394.000000	37.269578 
2393.000000	37.253927 
2392.000000	37.236134 
2391.000000	37.218126 
2390.000000	37.193537 
2389.000000	37.160678 
2388.000000	37.129990 
2387.000000	37.112459 
2386.000000	37.107402 
2385.000000	37.109598 
2384.000000	37.122910 
2383.000000	37.155436 
2382.000000	37.200822 
2381.000000	37.234452 
2380.000000	37.234098 
2379.000000	37.201315 
2378.000000	37.160566 
2377.000000	37.138659 
2376.000000	37.142616 
2375.000000	37.153182 
2374.000000	37.137282 
2373.000000	37.075156 
2372.000000	36.973817 
2371.000000	36.850622 
2370.000000	36.718101 
2369.000000	36.595171 
2368.000000	36.515576 
2367.000000	36.498048 
2366.000000	36.517997 
2365.000000	36.538065 
2364.000000	36.561178 
2363.000000	36.621951 
2362.000000	36.713306 
2361.000000	36.759630 
2360.000000	36.705174 
2359.000000	36.555537 
2358.000000	36.349439 
2357.000000	36.161314 
2356.000000	36.043154 
2355.000000	35.988434 
2354.000000	35.950336 
2353.000000	35.917300 
2352.000000	35.950469 
2351.000000	36.087517 
2350.000000	36.325614 
2349.000000	36.587946 
2348.000000	36.739107 
2347.000000	36.684809 
2346.000000	36.436486 
2345.000000	36.159349 
2344.000000	36.006219 
2343.000000	35.978042 
2342.000000	35.940337 
2341.000000	35.787363 
2340.000000	35.600015 
2339.000000	35.491193 
2338.000000	35.491216 
2337.000000	35.528310 
2336.000000	35.547263 
2335.000000	35.550568 
2334.000000	35.556375 
2333.000000	35.561814 
2332.000000	35.579136 
2331.000000	35.629276 
2330.000000	35.714593 
2329.000000	35.794240 
2328.000000	35.834527 
2327.000000	35.875821 
2326.000000	35.933659 
2325.000000	36.020198 
2324.000000	36.097364 
2323.000000	36.150211 
2322.000000	36.168852 
2321.000000	36.153302 
2320.000000	36.138642 
2319.000000	36.140090 
2318.000000	36.150214 
2317.000000	36.130502 
2316.000000	36.085947 
2315.000000	36.060215 
2314.000000	36.085916 
2313.000000	36.143671 
2312.000000	36.178721 
2311.000000	36.173331 
2310.000000	36.149030 
2309.000000	36.150028 
2308.000000	36.179064 
2307.000000	36.208969 
2306.000000	36.193751 
2305.000000	36.126991 
2304.000000	36.038812 
2303.000000	35.974494 
2302.000000	35.943595 
2301.000000	35.922621 
2300.000000	35.885642 
2299.000000	35.838107 
2298.000000	35.800925 
2297.000000	35.791383 
2296.000000	35.801408 
2295.000000	35.811588 
2294.000000	35.794750 
2293.000000	35.743107 
2292.000000	35.665811 
2291.000000	35.588379 
2290.000000	35.528906 
2289.000000	35.498269 
2288.000000	35.495768 
2287.000000	35.507342 
2286.000000	35.505309 
2285.000000	35.471499 
2284.000000	35.418937 
2283.000000	35.377994 
2282.000000	35.362077 
2281.000000	35.356951 
2280.000000	35.348272 
2279.000000	35.338706 
2278.000000	35.336907 
2277.000000	35.340526 
2276.000000	35.345002 
2275.000000	35.351387 
2274.000000	35.358534 
2273.000000	35.356124 
2272.000000	35.337697 
2271.000000	35.312823 
2270.000000	35.292682 
2269.000000	35.273580 
2268.000000	35.244115 
2267.000000	35.204341 
2266.000000	35.165155 
2265.000000	35.133756 
2264.000000	35.111059 
2263.000000	35.100431 
2262.000000	35.104357 
2261.000000	35.114576 
2260.000000	35.113398 
2259.000000	35.090540 
2258.000000	35.051189 
2257.000000	35.006701 
2256.000000	34.965562 
2255.000000	34.931123 
2254.000000	34.905251 
2253.000000	34.887654 
2252.000000	34.877178 
2251.000000	34.872760 
2250.000000	34.871532 
2249.000000	34.866664 
2248.000000	34.850153 
2247.000000	34.820860 
2246.000000	34.786329 
2245.000000	34.757825 
2244.000000	34.742701 
2243.000000	34.741484 
2242.000000	34.748180 
2241.000000	34.752672 
2240.000000	34.743906 
2239.000000	34.714808 
2238.000000	34.667651 
2237.000000	34.615667 
2236.000000	34.575787 
2235.000000	34.555827 
2234.000000	34.549537 
2233.000000	34.545717 
2232.000000	34.539513 
2231.000000	34.530942 
2230.000000	34.516525 
2229.000000	34.490455 
2228.000000	34.454918 
2227.000000	34.421567 
2226.000000	34.399112 
2225.000000	34.383695 
2224.000000	34.364609 
2223.000000	34.336273 
2222.000000	34.302330 
2221.000000	34.271631 
2220.000000	34.253065 
2219.000000	34.251067 
2218.000000	34.261308 
2217.000000	34.270874 
2216.000000	34.265797 
2215.000000	34.240692 
2214.000000	34.201676 
2213.000000	34.160438 
2212.000000	34.125407 
2211.000000	34.098493 
2210.000000	34.079792 
2209.000000	34.072133 
2208.000000	34.076480 
2207.000000	34.083861 
2206.000000	34.079383 
2205.000000	34.058193 
2204.000000	34.031865 
2203.000000	34.013786 
2202.000000	34.003378 
2201.000000	33.991115 
2200.000000	33.974099 
2199.000000	33.957612 
2198.000000	33.943484 
2197.000000	33.926743 
2196.000000	33.904533 
2195.000000	33.880078 
2194.000000	33.855996 
2193.000000	33.830597 
2192.000000	33.803084 
2191.000000	33.776523 
2190.000000	33.753227 
2189.000000	33.732268 
2188.000000	33.713788 
2187.000000	33.700631 
2186.000000	33.692317 
2185.000000	33.681347 
2184.000000	33.659983 
2183.000000	33.629960 
2182.000000	33.603077 
2181.000000	33.591540 
2180.000000	33.596807 
2179.000000	33.606751 
2178.000000	33.604832 
2177.000000	33.583965 
2176.000000	33.551073 
2175.000000	33.517859 
2174.000000	33.490542 
2173.000000	33.470686 
2172.000000	33.461175 
2171.000000	33.465146 
2170.000000	33.479386 
2169.000000	33.493005 
2168.000000	33.493677 
2167.000000	33.474720 
2166.000000	33.438682 
2165.000000	33.396216 
2164.000000	33.358787 
2163.000000	33.329932 
2162.000000	33.305483 
2161.000000	33.281810 
2160.000000	33.258127 
2159.000000	33.230504 
2158.000000	33.193495 
2157.000000	33.153105 
2156.000000	33.129166 
2155.000000	33.135610 
2154.000000	33.162820 
2153.000000	33.186338 
2152.000000	33.188240 
2151.000000	33.164297 
2150.000000	33.118593 
2149.000000	33.062460 
2148.000000	33.013644 
2147.000000	32.984574 
2146.000000	32.973011 
2145.000000	32.971774 
2144.000000	32.981792 
2143.000000	33.004386 
2142.000000	33.025831 
2141.000000	33.024969 
2140.000000	32.997032 
2139.000000	32.957464 
2138.000000	32.921298 
2137.000000	32.891201 
2136.000000	32.867267 
2135.000000	32.854323 
2134.000000	32.853072 
2133.000000	32.853866 
2132.000000	32.846461 
2131.000000	32.830410 
2130.000000	32.811370 
2129.000000	32.792354 
2128.000000	32.772597 
2127.000000	32.751012 
2126.000000	32.727885 
2125.000000	32.705911 
2124.000000	32.690203 
2123.000000	32.684144 
2122.000000	32.685630 
2121.000000	32.690002 
2120.000000	32.693822 
2119.000000	32.691996 
2118.000000	32.676378 
2117.000000	32.645138 
2116.000000	32.610509 
2115.000000	32.588892 
2114.000000	32.584986 
2113.000000	32.592245 
2112.000000	32.604251 
2111.000000	32.615586 
2110.000000	32.615997 
2109.000000	32.597845 
2108.000000	32.569328 
2107.000000	32.547269 
2106.000000	32.535686 
2105.000000	32.523987 
2104.000000	32.507634 
2103.000000	32.495784 
2102.000000	32.493625 
2101.000000	32.491087 
2100.000000	32.477275 
2099.000000	32.455862 
2098.000000	32.436591 
2097.000000	32.419380 
2096.000000	32.396551 
2095.000000	32.366111 
2094.000000	32.335090 
2093.000000	32.311677 
2092.000000	32.299404 
2091.000000	32.297001 
2090.000000	32.299232 
2089.000000	32.298352 
2088.000000	32.287190 
2087.000000	32.261315 
2086.000000	32.220450 
2085.000000	32.171355 
2084.000000	32.126898 
2083.000000	32.096161 
2082.000000	32.076078 
2081.000000	32.057984 
2080.000000	32.040208 
2079.000000	32.027356 
2078.000000	32.018729 
2077.000000	32.006445 
2076.000000	31.985640 
2075.000000	31.958444 
2074.000000	31.928441 
2073.000000	31.898769 
2072.000000	31.875305 
2071.000000	31.861460 
2070.000000	31.848076 
2069.000000	31.819864 
2068.000000	31.774809 
2067.000000	31.726923 
2066.000000	31.686393 
2065.000000	31.648401 
2064.000000	31.607036 
2063.000000	31.567615 
2062.000000	31.535362 
2061.000000	31.501877 
2060.000000	31.455261 
2059.000000	31.399348 
2058.000000	31.351854 
2057.000000	31.324097 
2056.000000	31.310305 
2055.000000	31.295777 
2054.000000	31.268887 
2053.000000	31.226082 
2052.000000	31.172681 
2051.000000	31.119973 
2050.000000	31.075657 
2049.000000	31.035368 
2048.000000	30.987348 
2047.000000	30.926281 
2046.000000	30.859214 
2045.000000	30.797061 
2044.000000	30.743052 
2043.000000	30.691993 
2042.000000	30.639473 
2041.000000	30.587605 
2040.000000	30.539029 
2039.000000	30.488363 
2038.000000	30.425942 
2037.000000	30.351076 
2036.000000	30.275875 
2035.000000	30.212325 
2034.000000	30.160060 
2033.000000	30.111300 
2032.000000	30.062619 
2031.000000	30.014948 
2030.000000	29.965698 
2029.000000	29.908540 
2028.000000	29.840758 
2027.000000	29.763476 
2026.000000	29.676928 
2025.000000	29.584180 
2024.000000	29.499209 
2023.000000	29.440701 
2022.000000	29.411382 
2021.000000	29.391000 
2020.000000	29.354472 
2019.000000	29.292034 
2018.000000	29.208526 
2017.000000	29.110881 
2016.000000	29.004197 
2015.000000	28.896596 
2014.000000	28.799434 
2013.000000	28.720244 
2012.000000	28.658093 
2011.000000	28.606021 
2010.000000	28.556232 
2009.000000	28.502585 
2008.000000	28.441232 
2007.000000	28.372217 
2006.000000	28.301768 
2005.000000	28.239269 
2004.000000	28.188058 
2003.000000	28.140453 
2002.000000	28.084194 
2001.000000	28.016317 
2000.000000	27.945362 
1999.000000	27.880525 
1998.000000	27.822484 
1997.000000	27.764039 
1996.000000	27.698812 
1995.000000	27.626855 
1994.000000	27.553245 
1993.000000	27.483169 
1992.000000	27.417345 
1991.000000	27.350350 
1990.000000	27.276362 
1989.000000	27.197503 
1988.000000	27.123480 
1987.000000	27.062236 
1986.000000	27.012956 
1985.000000	26.968832 
1984.000000	26.922868 
1983.000000	26.869539 
1982.000000	26.805288 
1981.000000	26.732580 
1980.000000	26.659328 
1979.000000	26.592431 
1978.000000	26.533163 
1977.000000	26.478694 
1976.000000	26.426830 
1975.000000	26.376260 
1974.000000	26.325164 
1973.000000	26.272081 
1972.000000	26.216676 
1971.000000	26.157962 
1970.000000	26.095347 
1969.000000	26.033690 
1968.000000	25.982430 
1967.000000	25.943464 
1966.000000	25.903615 
1965.000000	25.848656 
1964.000000	25.782000 
1963.000000	25.720112 
1962.000000	25.671450 
1961.000000	25.626838 
1960.000000	25.572256 
1959.000000	25.507330 
1958.000000	25.446837 
1957.000000	25.405384 
1956.000000	25.383294 
1955.000000	25.366902 
1954.000000	25.341874 
1953.000000	25.303719 
1952.000000	25.255939 
1951.000000	25.200733 
1950.000000	25.138163 
1949.000000	25.075103 
1948.000000	25.022545 
1947.000000	24.982049 
1946.000000	24.944639 
1945.000000	24.906918 
1944.000000	24.878690 
1943.000000	24.866769 
1942.000000	24.858928 
1941.000000	24.836563 
1940.000000	24.798215 
1939.000000	24.755296 
1938.000000	24.711323 
1937.000000	24.660441 
1936.000000	24.603456 
1935.000000	24.553633 
1934.000000	24.523385 
1933.000000	24.510161 
1932.000000	24.499569 
1931.000000	24.477009 
1930.000000	24.437888 
1929.000000	24.392890 
1928.000000	24.355990 
1927.000000	24.331535 
1926.000000	24.313606 
1925.000000	24.298732 
1924.000000	24.289366 
1923.000000	24.277929 
1922.000000	24.247405 
1921.000000	24.196131 
1920.000000	24.145105 
1919.000000	24.110360 
1918.000000	24.081001 
1917.000000	24.037658 
1916.000000	23.983907 
1915.000000	23.938850 
1914.000000	23.907893 
1913.000000	23.880485 
1912.000000	23.852022 
1911.000000	23.829419 
1910.000000	23.815688 
1909.000000	23.804658 
1908.000000	23.790729 
1907.000000	23.775112 
1906.000000	23.754124 
1905.000000	23.717786 
1904.000000	23.665880 
1903.000000	23.610209 
1902.000000	23.563702 
1901.000000	23.532321 
1900.000000	23.515798 
1899.000000	23.510157 
1898.000000	23.503459 
1897.000000	23.479832 
1896.000000	23.436371 
1895.000000	23.387197 
1894.000000	23.348044 
1893.000000	23.322020 
1892.000000	23.303972 
1891.000000	23.289562 
1890.000000	23.274244 
1889.000000	23.250691 
1888.000000	23.216392 
1887.000000	23.181070 
1886.000000	23.157644 
1885.000000	23.146628 
1884.000000	23.133723 
1883.000000	23.101818 
1882.000000	23.047425 
1881.000000	22.986276 
1880.000000	22.940156 
1879.000000	22.918354 
1878.000000	22.908663 
1877.000000	22.889396 
1876.000000	22.855571 
1875.000000	22.824051 
1874.000000	22.809205 
1873.000000	22.803796 
1872.000000	22.788658 
1871.000000	22.754999 
1870.000000	22.710624 
1869.000000	22.667658 
1868.000000	22.627928 
1867.000000	22.587571 
1866.000000	22.553344 
1865.000000	22.535565 
1864.000000	22.529569 
1863.000000	22.519297 
1862.000000	22.497906 
1861.000000	22.476269 
1860.000000	22.464659 
1859.000000	22.453003 
1858.000000	22.420750 
1857.000000	22.364335 
1856.000000	22.304170 
1855.000000	22.263181 
1854.000000	22.245156 
1853.000000	22.237724 
1852.000000	22.223863 
1851.000000	22.196048 
1850.000000	22.160686 
1849.000000	22.128116 
1848.000000	22.105787 
1847.000000	22.096131 
1846.000000	22.099677 
1845.000000	22.113461 
1844.000000	22.125246 
1843.000000	22.114318 
1842.000000	22.072019 
1841.000000	22.010681 
1840.000000	21.943985 
1839.000000	21.880811 
1838.000000	21.830023 
1837.000000	21.799016 
1836.000000	21.784528 
1835.000000	21.770870 
1834.000000	21.749125 
1833.000000	21.730447 
1832.000000	21.731778 
1831.000000	21.755219 
1830.000000	21.781500 
1829.000000	21.786992 
1828.000000	21.770972 
1827.000000	21.747925 
1826.000000	21.720846 
1825.000000	21.686129 
1824.000000	21.655165 
1823.000000	21.644232 
1822.000000	21.650537 
1821.000000	21.656271 
1820.000000	21.649306 
1819.000000	21.631890 
1818.000000	21.609717 
1817.000000	21.588698 
1816.000000	21.578062 
1815.000000	21.578599 
1814.000000	21.577861 
1813.000000	21.562114 
1812.000000	21.534895 
1811.000000	21.512361 
1810.000000	21.498884 
1809.000000	21.489527 
1808.000000	21.485996 
1807.000000	21.491883 
1806.000000	21.499213 
1805.000000	21.490918 
1804.000000	21.458719 
1803.000000	21.412017 
1802.000000	21.375633 
1801.000000	21.373422 
1800.000000	21.409298 
1799.000000	21.458304 
1798.000000	21.481899 
1797.000000	21.461601 
1796.000000	21.410282 
1795.000000	21.354662 
1794.000000	21.313881 
1793.000000	21.292209 
1792.000000	21.286591 
1791.000000	21.287987 
1790.000000	21.288026 
1789.000000	21.291449 
1788.000000	21.305437 
1787.000000	21.326480 
1786.000000	21.341494 
1785.000000	21.340588 
1784.000000	21.328507 
1783.000000	21.314090 
1782.000000	21.299998 
1781.000000	21.278635 
1780.000000	21.249758 
1779.000000	21.231127 
1778.000000	21.233872 
1777.000000	21.248902 
1776.000000	21.256815 
1775.000000	21.252953 
1774.000000	21.250485 
1773.000000	21.257542 
1772.000000	21.263975 
1771.000000	21.251325 
1770.000000	21.217013 
1769.000000	21.179255 
1768.000000	21.159297 
1767.000000	21.166483 
1766.000000	21.193823 
1765.000000	21.224981 
1764.000000	21.248740 
1763.000000	21.258278 
1762.000000	21.247907 
1761.000000	21.215172 
1760.000000	21.175993 
1759.000000	21.157939 
1758.000000	21.171492 
1757.000000	21.199346 
1756.000000	21.209572 
1755.000000	21.193734 
1754.000000	21.168494 
1753.000000	21.143996 
1752.000000	21.115488 
1751.000000	21.084340 
1750.000000	21.057638 
1749.000000	21.036434 
1748.000000	21.021637 
1747.000000	21.018953 
1746.000000	21.030096 
1745.000000	21.035008 
1744.000000	21.010162 
1743.000000	20.960056 
1742.000000	20.915814 
1741.000000	20.904357 
1740.000000	20.925282 
1739.000000	20.949939 
1738.000000	20.951565 
1737.000000	20.932412 
1736.000000	20.905973 
1735.000000	20.874222 
1734.000000	20.850661 
1733.000000	20.847204 
1732.000000	20.857623 
1731.000000	20.882806 
1730.000000	20.918642 
1729.000000	20.948658 
1728.000000	20.957385 
1727.000000	20.942215 
1726.000000	20.914551 
1725.000000	20.886760 
1724.000000	20.872201 
1723.000000	20.875295 
1722.000000	20.884120 
1721.000000	20.889037 
1720.000000	20.891072 
1719.000000	20.891669 
1718.000000	20.886856 
1717.000000	20.880209 
1716.000000	20.882993 
1715.000000	20.891391 
1714.000000	20.885272 
1713.000000	20.856705 
1712.000000	20.821392 
1711.000000	20.795403 
1710.000000	20.777681 
1709.000000	20.758983 
1708.000000	20.736745 
1707.000000	20.718053 
1706.000000	20.698978 
1705.000000	20.661947 
1704.000000	20.601455 
1703.000000	20.538636 
1702.000000	20.498531 
1701.000000	20.492524 
1700.000000	20.514129 
1699.000000	20.511928 
1698.000000	20.462649 
1697.000000	20.407938 
1696.000000	20.392347 
1695.000000	20.417816 
1694.000000	20.439905 
1693.000000	20.434298 
1692.000000	20.412717 
1691.000000	20.389463 
1690.000000	20.371853 
1689.000000	20.353721 
1688.000000	20.314781 
1687.000000	20.248165 
1686.000000	20.160527 
1685.000000	20.070956 
1684.000000	20.022309 
1683.000000	20.004560 
1682.000000	19.988064 
1681.000000	19.985032 
1680.000000	19.991789 
1679.000000	19.988982 
1678.000000	19.966630 
1677.000000	19.921811 
1676.000000	19.858924 
1675.000000	19.798990 
1674.000000	19.769236 
1673.000000	19.770600 
1672.000000	19.788095 
1671.000000	19.801590 
1670.000000	19.792311 
1669.000000	19.756317 
1668.000000	19.700066 
1667.000000	19.639448 
1666.000000	19.588176 
1665.000000	19.546868 
1664.000000	19.508812 
1663.000000	19.463030 
1662.000000	19.407418 
1661.000000	19.354061 
1660.000000	19.313660 
1659.000000	19.283279 
1658.000000	19.249047 
1657.000000	19.208328 
1656.000000	19.175165 
1655.000000	19.165865 
1654.000000	19.157814 
1653.000000	19.112163 
1652.000000	19.016537 
1651.000000	18.917464 
1650.000000	18.857045 
1649.000000	18.819666 
1648.000000	18.782930 
1647.000000	18.743249 
1646.000000	18.690069 
1645.000000	18.607651 
1644.000000	18.519637 
1643.000000	18.460993 
1642.000000	18.442690 
1641.000000	18.449501 
1640.000000	18.455703 
1639.000000	18.447096 
1638.000000	18.416274 
1637.000000	18.354177 
1636.000000	18.274977 
1635.000000	18.223419 
1634.000000	18.208229 
1633.000000	18.200445 
1632.000000	18.183307 
1631.000000	18.150578 
1630.000000	18.102629 
1629.000000	18.044942 
1628.000000	17.990721 
1627.000000	17.955679 
1626.000000	17.942495 
1625.000000	17.935754 
1624.000000	17.921776 
1623.000000	17.910580 
1622.000000	17.918416 
1621.000000	17.938824 
1620.000000	17.954792 
1619.000000	17.963107 
1618.000000	17.969097 
1617.000000	17.979333 
1616.000000	17.984138 
1615.000000	17.967240 
1614.000000	17.939831 
1613.000000	17.924987 
1612.000000	17.932383 
1611.000000	17.959540 
1610.000000	17.996495 
1609.000000	18.024700 
1608.000000	18.026897 
1607.000000	18.003159 
1606.000000	17.973930 
1605.000000	17.960319 
1604.000000	17.970163 
1603.000000	18.000971 
1602.000000	18.037004 
1601.000000	18.055788 
1600.000000	18.047718 
1599.000000	18.022621 
1598.000000	17.993518 
1597.000000	17.962238 
1596.000000	17.927396 
1595.000000	17.894307 
1594.000000	17.868198 
1593.000000	17.845551 
1592.000000	17.822472 
1591.000000	17.803934 
1590.000000	17.793380 
1589.000000	17.780104 
1588.000000	17.750592 
1587.000000	17.710122 
1586.000000	17.679319 
1585.000000	17.671356 
1584.000000	17.676331 
1583.000000	17.678087 
1582.000000	17.669765 
1581.000000	17.649750 
1580.000000	17.620629 
1579.000000	17.594446 
1578.000000	17.585143 
1577.000000	17.593383 
1576.000000	17.608101 
1575.000000	17.609495 
1574.000000	17.591638 
1573.000000	17.565232 
1572.000000	17.536704 
1571.000000	17.510059 
1570.000000	17.499338 
1569.000000	17.511221 
1568.000000	17.524474 
1567.000000	17.527391 
1566.000000	17.523861 
1565.000000	17.511065 
1564.000000	17.481091 
1563.000000	17.443618 
1562.000000	17.412584 
1561.000000	17.393839 
1560.000000	17.368744 
1559.000000	17.359607 
1558.000000	17.356532 
1557.000000	17.326563 
1556.000000	17.300001 
1555.000000	17.282257 
1554.000000	17.255541 
1553.000000	17.213834 
1552.000000	17.167294 
1551.000000	17.131342 
1550.000000	17.105528 
1549.000000	17.086070 
1548.000000	17.077533 
1547.000000	17.084652 
1546.000000	17.098556 
1545.000000	17.099034 
1544.000000	17.077661 
1543.000000	17.046841 
1542.000000	17.016283 
1541.000000	16.980432 
1540.000000	16.946032 
1539.000000	16.918806 
1538.000000	16.889457 
1537.000000	16.854702 
1536.000000	16.819691 
1535.000000	16.790457 
1534.000000	16.778656 
1533.000000	16.784114 
1532.000000	16.786900 
1531.000000	16.778579 
1530.000000	16.764449 
1529.000000	16.746759 
1528.000000	16.725049 
1527.000000	16.697122 
1526.000000	16.661100 
1525.000000	16.619529 
1524.000000	16.582730 
1523.000000	16.559298 
1522.000000	16.542384 
1521.000000	16.512103 
1520.000000	16.457894 
1519.000000	16.396969 
1518.000000	16.348876 
1517.000000	16.317653 
1516.000000	16.301228 
1515.000000	16.289703 
1514.000000	16.268930 
1513.000000	16.226460 
1512.000000	16.164921 
1511.000000	16.105656 
1510.000000	16.067184 
1509.000000	16.052626 
1508.000000	16.047322 
1507.000000	16.026700 
1506.000000	15.966057 
1505.000000	15.893275 
1504.000000	15.857687 
1503.000000	15.858600 
1502.000000	15.863109 
1501.000000	15.843268 
1500.000000	15.797793 
1499.000000	15.745322 
1498.000000	15.691192 
1497.000000	15.623383 
1496.000000	15.549410 
1495.000000	15.488690 
1494.000000	15.440412 
1493.000000	15.390749 
1492.000000	15.335344 
1491.000000	15.283117 
1490.000000	15.241857 
1489.000000	15.206581 
1488.000000	15.176160 
1487.000000	15.155055 
1486.000000	15.137042 
1485.000000	15.116269 
1484.000000	15.095350 
1483.000000	15.081635 
1482.000000	15.068339 
1481.000000	15.033298 
1480.000000	14.968652 
1479.000000	14.892469 
1478.000000	14.827305 
1477.000000	14.783073 
1476.000000	14.761330 
1475.000000	14.753645 
1474.000000	14.740105 
1473.000000	14.693166 
1472.000000	14.603798 
1471.000000	14.498309 
1470.000000	14.407289 
1469.000000	14.341706 
1468.000000	14.301806 
1467.000000	14.279968 
1466.000000	14.253752 
1465.000000	14.195168 
1464.000000	14.102757 
1463.000000	14.008531 
1462.000000	13.933448 
1461.000000	13.874015 
1460.000000	13.825833 
1459.000000	13.793868 
1458.000000	13.772231 
1457.000000	13.728774 
1456.000000	13.647412 
1455.000000	13.562927 
1454.000000	13.503413 
1453.000000	13.459608 
1452.000000	13.421888 
1451.000000	13.392257 
1450.000000	13.366942 
1449.000000	13.329187 
1448.000000	13.272604 
1447.000000	13.211871 
1446.000000	13.162691 
1445.000000	13.120344 
1444.000000	13.075120 
1443.000000	13.030011 
1442.000000	12.988696 
1441.000000	12.949693 
1440.000000	12.918399 
1439.000000	12.912553 
1438.000000	12.938909 
1437.000000	12.972711 
1436.000000	12.971458 
1435.000000	12.924655 
1434.000000	12.856772 
1433.000000	12.784681 
1432.000000	12.712776 
1431.000000	12.647335 
1430.000000	12.591940 
1429.000000	12.542411 
1428.000000	12.500777 
1427.000000	12.475483 
1426.000000	12.466761 
1425.000000	12.459854 
1424.000000	12.442762 
1423.000000	12.423710 
1422.000000	12.413313 
1421.000000	12.405340 
1420.000000	12.384181 
1419.000000	12.346758 
1418.000000	12.300124 
1417.000000	12.250200 
1416.000000	12.205627 
1415.000000	12.174533 
1414.000000	12.156487 
1413.000000	12.143653 
1412.000000	12.131441 
1411.000000	12.121072 
1410.000000	12.107201 
1409.000000	12.078752 
1408.000000	12.037880 
1407.000000	11.999288 
1406.000000	11.970474 
1405.000000	11.942559 
1404.000000	11.911245 
1403.000000	11.892203 
1402.000000	11.894770 
1401.000000	11.902103 
1400.000000	11.889392 
1399.000000	11.855226 
1398.000000	11.822097 
1397.000000	11.805416 
1396.000000	11.801820 
1395.000000	11.802651 
1394.000000	11.800345 
1393.000000	11.784110 
1392.000000	11.748651 
1391.000000	11.703641 
1390.000000	11.666453 
1389.000000	11.649027 
1388.000000	11.650473 
1387.000000	11.656673 
1386.000000	11.648937 
1385.000000	11.619001 
1384.000000	11.575218 
1383.000000	11.535445 
1382.000000	11.510405 
1381.000000	11.492775 
1380.000000	11.466871 
1379.000000	11.429454 
1378.000000	11.393536 
1377.000000	11.369720 
1376.000000	11.352992 
1375.000000	11.331670 
1374.000000	11.304618 
1373.000000	11.282271 
1372.000000	11.273156 
1371.000000	11.274935 
1370.000000	11.279651 
1369.000000	11.280786 
1368.000000	11.274881 
1367.000000	11.259631 
1366.000000	11.232292 
1365.000000	11.193613 
1364.000000	11.153498 
1363.000000	11.129493 
1362.000000	11.132914 
1361.000000	11.156924 
1360.000000	11.182041 
1359.000000	11.188434 
1358.000000	11.165759 
1357.000000	11.121013 
1356.000000	11.075348 
1355.000000	11.044078 
1354.000000	11.019816 
1353.000000	10.983308 
1352.000000	10.930136 
1351.000000	10.875080 
1350.000000	10.834495 
1349.000000	10.812031 
1348.000000	10.801682 
1347.000000	10.795193 
1346.000000	10.782957 
1345.000000	10.759227 
1344.000000	10.731648 
1343.000000	10.715918 
1342.000000	10.714593 
1341.000000	10.709087 
1340.000000	10.680404 
1339.000000	10.634083 
1338.000000	10.592523 
1337.000000	10.565574 
1336.000000	10.543924 
1335.000000	10.516383 
1334.000000	10.481175 
1333.000000	10.443409 
1332.000000	10.408870 
1331.000000	10.379960 
1330.000000	10.354286 
1329.000000	10.327499 
1328.000000	10.299447 
1327.000000	10.274356 
1326.000000	10.253414 
1325.000000	10.231715 
1324.000000	10.205788 
1323.000000	10.178643 
1322.000000	10.153824 
1321.000000	10.131711 
1320.000000	10.115483 
1319.000000	10.111602 
1318.000000	10.116623 
1317.000000	10.112666 
1316.000000	10.086227 
1315.000000	10.046031 
1314.000000	10.014691 
1313.000000	10.004117 
1312.000000	10.003540 
1311.000000	9.991674  
1310.000000	9.956822  
1309.000000	9.907133  
1308.000000	9.866672  
1307.000000	9.856204  
1306.000000	9.871437  
1305.000000	9.885225  
1304.000000	9.877378  
1303.000000	9.855192  
1302.000000	9.836657  
1301.000000	9.821936  
1300.000000	9.795342  
1299.000000	9.752861  
1298.000000	9.711974  
1297.000000	9.689572  
1296.000000	9.681786  
1295.000000	9.674211  
1294.000000	9.663579  
1293.000000	9.656486  
1292.000000	9.649202  
1291.000000	9.622390  
1290.000000	9.562607  
1289.000000	9.483967  
1288.000000	9.420894  
1287.000000	9.398114  
1286.000000	9.410571  
1285.000000	9.431947  
1284.000000	9.436792  
1283.000000	9.414278  
1282.000000	9.370610  
1281.000000	9.324312  
1280.000000	9.292585  
1279.000000	9.275069  
1278.000000	9.254818  
1277.000000	9.221586  
1276.000000	9.187556  
1275.000000	9.169844  
1274.000000	9.163277  
1273.000000	9.146107  
1272.000000	9.113890  
1271.000000	9.090917  
1270.000000	9.098436  
1269.000000	9.124075  
1268.000000	9.134757  
1267.000000	9.112381  
1266.000000	9.067846  
1265.000000	9.025733  
1264.000000	9.003787  
1263.000000	9.002708  
1262.000000	9.005534  
1261.000000	8.988348  
1260.000000	8.940014  
1259.000000	8.873361  
1258.000000	8.812766  
1257.000000	8.771438  
1256.000000	8.746223  
1255.000000	8.730666  
1254.000000	8.722476  
1253.000000	8.716773  
1252.000000	8.700949  
1251.000000	8.663536  
1250.000000	8.607044  
1249.000000	8.547395  
1248.000000	8.499012  
1247.000000	8.462039  
1246.000000	8.426067  
1245.000000	8.385681  
1244.000000	8.348672  
1243.000000	8.326683  
1242.000000	8.320258  
1241.000000	8.317683  
1240.000000	8.308152  
1239.000000	8.290973  
1238.000000	8.271817  
1237.000000	8.253978  
1236.000000	8.234023  
1235.000000	8.204918  
1234.000000	8.163529  
1233.000000	8.115020  
1232.000000	8.068503  
1231.000000	8.028383  
1230.000000	7.993495  
1229.000000	7.966534  
1228.000000	7.958070  
1227.000000	7.973459  
1226.000000	7.998050  
1225.000000	8.004521  
1224.000000	7.977511  
1223.000000	7.927395  
1222.000000	7.879372  
1221.000000	7.851239  
1220.000000	7.841158  
1219.000000	7.833934  
1218.000000	7.818273  
1217.000000	7.798577  
1216.000000	7.788278  
1215.000000	7.792733  
1214.000000	7.804322  
1213.000000	7.813706  
1212.000000	7.814918  
1211.000000	7.795720  
1210.000000	7.738268  
1209.000000	7.642571  
1208.000000	7.541358  
1207.000000	7.477190  
1206.000000	7.464561  
1205.000000	7.483476  
1204.000000	7.507400  
1203.000000	7.525633  
1202.000000	7.539436  
1201.000000	7.549399  
1200.000000	7.551852  
1199.000000	7.543271  
1198.000000	7.527063  
1197.000000	7.515147  
1196.000000	7.515024  
1195.000000	7.512744  
1194.000000	7.481184  
1193.000000	7.413963  
1192.000000	7.339498  
1191.000000	7.290045  
1190.000000	7.268494  
1189.000000	7.261119  
1188.000000	7.269913  
1187.000000	7.306695  
1186.000000	7.359446  
1185.000000	7.390914  
1184.000000	7.377392  
1183.000000	7.334627  
1182.000000	7.300816  
1181.000000	7.302680  
1180.000000	7.336489  
1179.000000	7.369373  
1178.000000	7.362456  
1177.000000	7.308858  
1176.000000	7.247667  
1175.000000	7.224800  
1174.000000	7.239922  
1173.000000	7.250931  
1172.000000	7.233274  
1171.000000	7.210475  
1170.000000	7.214046  
1169.000000	7.232967  
1168.000000	7.224786  
1167.000000	7.172031  
1166.000000	7.109955  
1165.000000	7.092622  
1164.000000	7.138749  
1163.000000	7.217017  
1162.000000	7.282144  
1161.000000	7.316770  
1160.000000	7.331777  
1159.000000	7.334129  
1158.000000	7.314233  
1157.000000	7.272514  
1156.000000	7.237606  
1155.000000	7.235352  
1154.000000	7.251063  
1153.000000	7.246713  
1152.000000	7.210764  
1151.000000	7.168038  
1150.000000	7.140752  
1149.000000	7.123914  
1148.000000	7.105557  
1147.000000	7.091703  
1146.000000	7.101406  
1145.000000	7.144200  
1144.000000	7.205318  
1143.000000	7.249486  
1142.000000	7.242365  
1141.000000	7.181753  
1140.000000	7.109206  
1139.000000	7.075956  
1138.000000	7.094716  
1137.000000	7.135387  
1136.000000	7.163855  
1135.000000	7.169072  
1134.000000	7.155654  
1133.000000	7.132243  
1132.000000	7.112701  
1131.000000	7.109223  
1130.000000	7.116378  
1129.000000	7.116309  
1128.000000	7.101455  
1127.000000	7.079363  
1126.000000	7.058787  
1125.000000	7.046441  
1124.000000	7.054254  
1123.000000	7.090972  
1122.000000	7.145460  
1121.000000	7.194632  
1120.000000	7.228434  
1119.000000	7.251290  
1118.000000	7.259976  
1117.000000	7.242673  
1116.000000	7.206819  
1115.000000	7.184807  
1114.000000	7.196570  
1113.000000	7.222794  
1112.000000	7.230103  
1111.000000	7.210711  
1110.000000	7.185228  
1109.000000	7.176029  
1108.000000	7.190154  
1107.000000	7.220542  
1106.000000	7.252444  
1105.000000	7.274181  
1104.000000	7.287914  
1103.000000	7.303151  
1102.000000	7.317013  
1101.000000	7.312549  
1100.000000	7.282137  
1099.000000	7.241498  
1098.000000	7.213529  
1097.000000	7.206681  
1096.000000	7.214561  
1095.000000	7.225298  
1094.000000	7.224897  
1093.000000	7.205407  
1092.000000	7.179123  
1091.000000	7.171818  
1090.000000	7.191570  
1089.000000	7.216026  
1088.000000	7.222075  
1087.000000	7.217128  
1086.000000	7.229232  
1085.000000	7.274226  
1084.000000	7.341668  
1083.000000	7.407711  
1082.000000	7.453146  
1081.000000	7.470620  
1080.000000	7.463717  
1079.000000	7.441327  
1078.000000	7.407521  
1077.000000	7.361444  
1076.000000	7.310198  
1075.000000	7.271472  
1074.000000	7.258729  
1073.000000	7.270224  
1072.000000	7.296250  
1071.000000	7.331257  
1070.000000	7.374466  
1069.000000	7.424586  
1068.000000	7.480823  
1067.000000	7.545299  
1066.000000	7.617072  
1065.000000	7.684036  
1064.000000	7.724454  
1063.000000	7.719929  
1062.000000	7.671998  
1061.000000	7.607374  
1060.000000	7.560022  
1059.000000	7.541747  
1058.000000	7.534023  
1057.000000	7.514266  
1056.000000	7.485337  
1055.000000	7.470798  
1054.000000	7.483803  
1053.000000	7.512661  
1052.000000	7.540220  
1051.000000	7.565507  
1050.000000	7.597646  
1049.000000	7.636619  
1048.000000	7.671827  
1047.000000	7.699129  
1046.000000	7.730427  
1045.000000	7.781761  
1044.000000	7.854073  
1043.000000	7.928908  
1042.000000	7.982416  
1041.000000	7.999526  
1040.000000	7.978332  
1039.000000	7.931960  
1038.000000	7.888950  
1037.000000	7.881159  
1036.000000	7.918267  
1035.000000	7.975337  
1034.000000	8.015873  
1033.000000	8.028910  
1032.000000	8.035480  
1031.000000	8.057217  
1030.000000	8.091631  
1029.000000	8.121747  
1028.000000	8.136355  
1027.000000	8.138378  
1026.000000	8.144809  
1025.000000	8.178082  
1024.000000	8.243725  
1023.000000	8.313386  
1022.000000	8.344609  
1021.000000	8.324254  
1020.000000	8.281181  
1019.000000	8.254229  
1018.000000	8.259632  
1017.000000	8.289958  
1016.000000	8.330990  
1015.000000	8.373943  
1014.000000	8.419063  
1013.000000	8.470203  
1012.000000	8.520872  
1011.000000	8.554340  
1010.000000	8.569305  
1009.000000	8.590164  
1008.000000	8.628348  
1007.000000	8.655670  
1006.000000	8.659704  
1005.000000	8.702229  
1004.000000	8.850459  
1003.000000	9.048178  
1002.000000	9.140955  
1001.000000	9.046391  
1000.000000	8.838848  
999.000000	 8.690052  
998.000000	 8.702388  
997.000000	 8.798603  
996.000000	 8.871571  
995.000000	 8.923774  
994.000000	 8.985947  
993.000000	 9.035008  
992.000000	 9.038964  
991.000000	 9.015614  
990.000000	 9.002831  
989.000000	 9.008274  
988.000000	 9.025499  
987.000000	 9.067245  
986.000000	 9.145404  
985.000000	 9.239765  
984.000000	 9.318166  
983.000000	 9.371348  
982.000000	 9.407644  
981.000000	 9.431329  
980.000000	 9.446222  
979.000000	 9.464701  
978.000000	 9.489141  
977.000000	 9.497816  
976.000000	 9.475383  
975.000000	 9.446858  
974.000000	 9.454138  
973.000000	 9.503868  
972.000000	 9.563399  
971.000000	 9.605794  
970.000000	 9.635482  
969.000000	 9.669080  
968.000000	 9.714240  
967.000000	 9.773278  
966.000000	 9.847885  
965.000000	 9.929472  
964.000000	 9.996569  
963.000000	 10.032511 
962.000000	 10.041534 
961.000000	 10.042941 
960.000000	 10.053854 
959.000000	 10.077472 
958.000000	 10.100851 
957.000000	 10.105339 
956.000000	 10.088495 
955.000000	 10.075811 
954.000000	 10.100121 
953.000000	 10.165132 
952.000000	 10.237276 
951.000000	 10.279901 
950.000000	 10.292077 
949.000000	 10.308221 
948.000000	 10.359821 
947.000000	 10.441177 
946.000000	 10.514225 
945.000000	 10.545842 
944.000000	 10.540694 
943.000000	 10.538678 
942.000000	 10.578731 
941.000000	 10.663258 
940.000000	 10.756943 
939.000000	 10.818587 
938.000000	 10.834570 
937.000000	 10.825643 
936.000000	 10.824631 
935.000000	 10.847341 
934.000000	 10.883515 
933.000000	 10.914024 
932.000000	 10.934653 
931.000000	 10.960594 
930.000000	 11.007181 
929.000000	 11.071082 
928.000000	 11.135037 
927.000000	 11.187444 
926.000000	 11.229084 
925.000000	 11.260009 
924.000000	 11.270015 
923.000000	 11.253951 
922.000000	 11.235159 
921.000000	 11.256504 
920.000000	 11.339431 
919.000000	 11.461501 
918.000000	 11.582181 
917.000000	 11.684545 
916.000000	 11.780285 
915.000000	 11.878383 
914.000000	 11.967408 
913.000000	 12.033145 
912.000000	 12.078113 
911.000000	 12.115409 
910.000000	 12.154178 
909.000000	 12.197397 
908.000000	 12.244295 
907.000000	 12.288658 
906.000000	 12.322799 
905.000000	 12.350022 
904.000000	 12.386441 
903.000000	 12.443446 
902.000000	 12.516722 
901.000000	 12.601515 
900.000000	 12.707182 
899.000000	 12.843297 
898.000000	 12.999324 
897.000000	 13.149728 
896.000000	 13.274142 
895.000000	 13.365394 
894.000000	 13.429072 
893.000000	 13.487563 
892.000000	 13.572712 
891.000000	 13.695607 
890.000000	 13.828948 
889.000000	 13.937777 
888.000000	 14.024563 
887.000000	 14.124417 
886.000000	 14.254720 
885.000000	 14.389821 
884.000000	 14.494066 
883.000000	 14.563307 
882.000000	 14.621510 
881.000000	 14.689164 
880.000000	 14.770689 
879.000000	 14.867735 
878.000000	 14.989668 
877.000000	 15.143532 
876.000000	 15.315661 
875.000000	 15.472007 
874.000000	 15.587835 
873.000000	 15.677389 
872.000000	 15.782006 
871.000000	 15.924789 
870.000000	 16.087287 
869.000000	 16.233981 
868.000000	 16.345705 
867.000000	 16.421501 
866.000000	 16.464168 
865.000000	 16.481558 
864.000000	 16.493652 
863.000000	 16.522449 
862.000000	 16.578234 
861.000000	 16.661697 
860.000000	 16.769345 
859.000000	 16.885197 
858.000000	 16.975020 
857.000000	 17.010213 
856.000000	 17.002445 
855.000000	 16.999755 
854.000000	 17.040815 
853.000000	 17.119982 
852.000000	 17.200173 
851.000000	 17.252553 
850.000000	 17.280631 
849.000000	 17.310468 
848.000000	 17.359443 
847.000000	 17.415805 
846.000000	 17.456055 
845.000000	 17.481931 
844.000000	 17.521260 
843.000000	 17.581477 
842.000000	 17.622898 
841.000000	 17.602633 
840.000000	 17.534113 
839.000000	 17.474145 
838.000000	 17.455408 
837.000000	 17.464993 
836.000000	 17.491734 
835.000000	 17.554115 
834.000000	 17.659835 
833.000000	 17.767310 
832.000000	 17.820570 
831.000000	 17.814845 
830.000000	 17.803927 
829.000000	 17.842701 
828.000000	 17.937506 
827.000000	 18.051921 
826.000000	 18.147472 
825.000000	 18.212686 
824.000000	 18.256774 
823.000000	 18.285529 
822.000000	 18.296031 
821.000000	 18.298875 
820.000000	 18.329229 
819.000000	 18.415336 
818.000000	 18.543193 
817.000000	 18.674317 
816.000000	 18.793000 
815.000000	 18.910868 
814.000000	 19.025015 
813.000000	 19.105498 
812.000000	 19.139416 
811.000000	 19.156161 
810.000000	 19.187218 
809.000000	 19.229074 
808.000000	 19.272794 
807.000000	 19.342870 
806.000000	 19.467444 
805.000000	 19.624618 
804.000000	 19.758236 
803.000000	 19.842657 
802.000000	 19.897035 
801.000000	 19.937830 
800.000000	 19.956695 
799.000000	 19.953169 
798.000000	 19.949267 
797.000000	 19.955002 
796.000000	 19.957081 
795.000000	 19.961923 
794.000000	 20.014343 
793.000000	 20.141568 
792.000000	 20.298771 
791.000000	 20.405016 
790.000000	 20.429028 
789.000000	 20.414369 
788.000000	 20.421768 
787.000000	 20.470535 
786.000000	 20.539510 
785.000000	 20.602192 
784.000000	 20.648467 
783.000000	 20.682332 
782.000000	 20.711713 
781.000000	 20.745066 
780.000000	 20.794816 
779.000000	 20.874441 
778.000000	 20.980727 
777.000000	 21.081484 
776.000000	 21.141252 
775.000000	 21.167444 
774.000000	 21.210854 
773.000000	 21.304977 
772.000000	 21.421508 
771.000000	 21.506268 
770.000000	 21.545508 
769.000000	 21.570606 
768.000000	 21.606899 
767.000000	 21.649963 
766.000000	 21.692653 
765.000000	 21.743618 
764.000000	 21.809375 
763.000000	 21.883687 
762.000000	 21.967165 
761.000000	 22.075079 
760.000000	 22.206027 
759.000000	 22.318931 
758.000000	 22.367370 
757.000000	 22.354050 
756.000000	 22.331775 
755.000000	 22.348213 
754.000000	 22.403749 
753.000000	 22.466241 
752.000000	 22.514609 
751.000000	 22.559444 
750.000000	 22.625174 
749.000000	 22.723752 
748.000000	 22.846110 
747.000000	 22.972050 
746.000000	 23.085642 
745.000000	 23.179097 
744.000000	 23.250434 
743.000000	 23.308359 
742.000000	 23.372867 
741.000000	 23.455873 
740.000000	 23.537842 
739.000000	 23.576566 
738.000000	 23.549580 
737.000000	 23.482658 
736.000000	 23.429503 
735.000000	 23.427178 
734.000000	 23.475733 
733.000000	 23.554612 
732.000000	 23.647110 
731.000000	 23.744275 
730.000000	 23.830971 
729.000000	 23.882330 
728.000000	 23.888087 
727.000000	 23.878474 
726.000000	 23.905316 
725.000000	 23.983445 
724.000000	 24.068219 
723.000000	 24.114347 
722.000000	 24.145025 
721.000000	 24.235224 
720.000000	 24.416735 
719.000000	 24.623636 
718.000000	 24.761299 
717.000000	 24.801929 
716.000000	 24.788022 
715.000000	 24.776103 
714.000000	 24.798562 
713.000000	 24.858822 
712.000000	 24.938563 
711.000000	 25.012854 
710.000000	 25.074170 
709.000000	 25.138758 
708.000000	 25.219109 
707.000000	 25.297047 
706.000000	 25.340105 
705.000000	 25.346735 
704.000000	 25.363793 
703.000000	 25.454160 
702.000000	 25.647385 
701.000000	 25.911139 
700.000000	 26.159903 
699.000000	 26.304438 
698.000000	 26.316082 
697.000000	 26.248730 
696.000000	 26.188586 
695.000000	 26.178090 
694.000000	 26.196507 
693.000000	 26.213657 
692.000000	 26.243119 
691.000000	 26.327914 
690.000000	 26.480846 
689.000000	 26.653371 
688.000000	 26.774924 
687.000000	 26.824287 
686.000000	 26.847306 
685.000000	 26.898547 
684.000000	 26.978051 
683.000000	 27.039634 
682.000000	 27.058131 
681.000000	 27.061870 
680.000000	 27.099378 
679.000000	 27.188321 
678.000000	 27.315142 
677.000000	 27.445132 
676.000000	 27.551431 
675.000000	 27.606914 
674.000000	 27.589598 
673.000000	 27.552671 
672.000000	 27.589777 
671.000000	 27.709179 
670.000000	 27.824626 
669.000000	 27.894700 
668.000000	 27.910043 
667.000000	 27.823704 
666.000000	 27.852395 
665.000000	 28.128695 
664.000000	 28.421816 
663.000000	 28.567284 
662.000000	 28.579943 
661.000000	 28.525442 
660.000000	 28.455998 
659.000000	 28.412355 
658.000000	 28.425998 
657.000000	 28.482647 
656.000000	 28.565415 
655.000000	 28.677634 
654.000000	 28.801113 
653.000000	 28.903561 
652.000000	 28.979297 
651.000000	 29.055020 
650.000000	 29.136185 

