PE IR                   SPECTRUM    ASCII       PEDS        1.60        
  -1
~SP.SP
22/02/22
09:43:20.00
22/02/22
09:43:20.00
Administrator

650.000000
4









SPECTRUM 100,CPU32 MAIN 00.02.7000 27-JANUARY-2006 11:32:41
MCT
MIR
OPTKBR
76073
1.000000

4.000000
STRONG
RATIO
SPECTRUM
MAGNITUDE
MIR INT SPHERE
DOUBLE

COMBINED


0


#HDR
-1
-1
#GR
CM-1
%T
0.00002384185791015625
0.0
4000.000000
-1.000000
3351
8
5.010120
2.508340
#DATA
4000.000000	3.486002 
3999.000000	3.454849 
3998.000000	3.434644 
3997.000000	3.421983 
3996.000000	3.417542 
3995.000000	3.410039 
3994.000000	3.400095 
3993.000000	3.398918 
3992.000000	3.418495 
3991.000000	3.458553 
3990.000000	3.502775 
3989.000000	3.529212 
3988.000000	3.527192 
3987.000000	3.505054 
3986.000000	3.482173 
3985.000000	3.473603 
3984.000000	3.480370 
3983.000000	3.491636 
3982.000000	3.494263 
3981.000000	3.481217 
3980.000000	3.454643 
3979.000000	3.424485 
3978.000000	3.402802 
3977.000000	3.395830 
3976.000000	3.400290 
3975.000000	3.406701 
3974.000000	3.406899 
3973.000000	3.400407 
3972.000000	3.393774 
3971.000000	3.393370 
3970.000000	3.400038 
3969.000000	3.410818 
3968.000000	3.424763 
3967.000000	3.445919 
3966.000000	3.478300 
3965.000000	3.517598 
3964.000000	3.549378 
3963.000000	3.555555 
3962.000000	3.525452 
3961.000000	3.464652 
3960.000000	3.394773 
3959.000000	3.343743 
3958.000000	3.332272 
3957.000000	3.363046 
3956.000000	3.420548 
3955.000000	3.481477 
3954.000000	3.525238 
3953.000000	3.539129 
3952.000000	3.519797 
3951.000000	3.473425 
3950.000000	3.414938 
3949.000000	3.363774 
3948.000000	3.334924 
3947.000000	3.330641 
3946.000000	3.340565 
3945.000000	3.350463 
3944.000000	3.351029 
3943.000000	3.341187 
3942.000000	3.327931 
3941.000000	3.321375 
3940.000000	3.326634 
3939.000000	3.338185 
3938.000000	3.344281 
3937.000000	3.339435 
3936.000000	3.332735 
3935.000000	3.340168 
3934.000000	3.365020 
3933.000000	3.388726 
3932.000000	3.386502 
3931.000000	3.356570 
3930.000000	3.329201 
3929.000000	3.337683 
3928.000000	3.382752 
3927.000000	3.432221 
3926.000000	3.451821 
3925.000000	3.432597 
3924.000000	3.393793 
3923.000000	3.366709 
3922.000000	3.370807 
3921.000000	3.400872 
3920.000000	3.434863 
3919.000000	3.452357 
3918.000000	3.447777 
3917.000000	3.429324 
3916.000000	3.410571 
3915.000000	3.404216 
3914.000000	3.420320 
3913.000000	3.459387 
3912.000000	3.503915 
3911.000000	3.522621 
3910.000000	3.495793 
3909.000000	3.436373 
3908.000000	3.380186 
3907.000000	3.355216 
3906.000000	3.361833 
3905.000000	3.377904 
3904.000000	3.379032 
3903.000000	3.359710 
3902.000000	3.336488 
3901.000000	3.331582 
3900.000000	3.354306 
3899.000000	3.393744 
3898.000000	3.426616 
3897.000000	3.435216 
3896.000000	3.419959 
3895.000000	3.395110 
3894.000000	3.379043 
3893.000000	3.385448 
3892.000000	3.415081 
3891.000000	3.448732 
3890.000000	3.459629 
3889.000000	3.437058 
3888.000000	3.393996 
3887.000000	3.358740 
3886.000000	3.353610 
3885.000000	3.372129 
3884.000000	3.386764 
3883.000000	3.380566 
3882.000000	3.362068 
3881.000000	3.353118 
3880.000000	3.365861 
3879.000000	3.389675 
3878.000000	3.400969 
3877.000000	3.383547 
3876.000000	3.343450 
3875.000000	3.304705 
3874.000000	3.285759 
3873.000000	3.283727 
3872.000000	3.285914 
3871.000000	3.289825 
3870.000000	3.301968 
3869.000000	3.320220 
3868.000000	3.336007 
3867.000000	3.347707 
3866.000000	3.358716 
3865.000000	3.366368 
3864.000000	3.364822 
3863.000000	3.363698 
3862.000000	3.386344 
3861.000000	3.438178 
3860.000000	3.499166 
3859.000000	3.544207 
3858.000000	3.559564 
3857.000000	3.542024 
3856.000000	3.493734 
3855.000000	3.430162 
3854.000000	3.382126 
3853.000000	3.363169 
3852.000000	3.362067 
3851.000000	3.367464 
3850.000000	3.374283 
3849.000000	3.378885 
3848.000000	3.375712 
3847.000000	3.360074 
3846.000000	3.333450 
3845.000000	3.303358 
3844.000000	3.280753 
3843.000000	3.273254 
3842.000000	3.281078 
3841.000000	3.298654 
3840.000000	3.323058 
3839.000000	3.356457 
3838.000000	3.395747 
3837.000000	3.425876 
3836.000000	3.428902 
3835.000000	3.399750 
3834.000000	3.355140 
3833.000000	3.324479 
3832.000000	3.327009 
3831.000000	3.354095 
3830.000000	3.378078 
3829.000000	3.380133 
3828.000000	3.368613 
3827.000000	3.367605 
3826.000000	3.387284 
3825.000000	3.409205 
3824.000000	3.405563 
3823.000000	3.369637 
3822.000000	3.326417 
3821.000000	3.303742 
3820.000000	3.298549 
3819.000000	3.289834 
3818.000000	3.268574 
3817.000000	3.248728 
3816.000000	3.248981 
3815.000000	3.269028 
3814.000000	3.298372 
3813.000000	3.333294 
3812.000000	3.370750 
3811.000000	3.397303 
3810.000000	3.394879 
3809.000000	3.365251 
3808.000000	3.345944 
3807.000000	3.381342 
3806.000000	3.471924 
3805.000000	3.570188 
3804.000000	3.626902 
3803.000000	3.627478 
3802.000000	3.589297 
3801.000000	3.531454 
3800.000000	3.473800 
3799.000000	3.445438 
3798.000000	3.460447 
3797.000000	3.504339 
3796.000000	3.544118 
3795.000000	3.555820 
3794.000000	3.546110 
3793.000000	3.535180 
3792.000000	3.527044 
3791.000000	3.508402 
3790.000000	3.472562 
3789.000000	3.433124 
3788.000000	3.407001 
3787.000000	3.394765 
3786.000000	3.385771 
3785.000000	3.374266 
3784.000000	3.362420 
3783.000000	3.351913 
3782.000000	3.340405 
3781.000000	3.329624 
3780.000000	3.330994 
3779.000000	3.350798 
3778.000000	3.377248 
3777.000000	3.391008 
3776.000000	3.386917 
3775.000000	3.378463 
3774.000000	3.380686 
3773.000000	3.394292 
3772.000000	3.408892 
3771.000000	3.416330 
3770.000000	3.416316 
3769.000000	3.413289 
3768.000000	3.413511 
3767.000000	3.421541 
3766.000000	3.437716 
3765.000000	3.458322 
3764.000000	3.476643 
3763.000000	3.487601 
3762.000000	3.493849 
3761.000000	3.499700 
3760.000000	3.501872 
3759.000000	3.493133 
3758.000000	3.474295 
3757.000000	3.452397 
3756.000000	3.430699 
3755.000000	3.408845 
3754.000000	3.387418 
3753.000000	3.364944 
3752.000000	3.331882 
3751.000000	3.282974 
3750.000000	3.239355 
3749.000000	3.234552 
3748.000000	3.275809 
3747.000000	3.340664 
3746.000000	3.407765 
3745.000000	3.469034 
3744.000000	3.493323 
3743.000000	3.446472 
3742.000000	3.356936 
3741.000000	3.280152 
3740.000000	3.239436 
3739.000000	3.223688 
3738.000000	3.220270 
3737.000000	3.243207 
3736.000000	3.317851 
3735.000000	3.437627 
3734.000000	3.553329 
3733.000000	3.615876 
3732.000000	3.613125 
3731.000000	3.565399 
3730.000000	3.504258 
3729.000000	3.455879 
3728.000000	3.431163 
3727.000000	3.420060 
3726.000000	3.396384 
3725.000000	3.345725 
3724.000000	3.289061 
3723.000000	3.263779 
3722.000000	3.284870 
3721.000000	3.332119 
3720.000000	3.373038 
3719.000000	3.391900 
3718.000000	3.395829 
3717.000000	3.396236 
3716.000000	3.394431 
3715.000000	3.387696 
3714.000000	3.378513 
3713.000000	3.373599 
3712.000000	3.375731 
3711.000000	3.378947 
3710.000000	3.380247 
3709.000000	3.385488 
3708.000000	3.400512 
3707.000000	3.423465 
3706.000000	3.445889 
3705.000000	3.461870 
3704.000000	3.474630 
3703.000000	3.492541 
3702.000000	3.515581 
3701.000000	3.528371 
3700.000000	3.514956 
3699.000000	3.479765 
3698.000000	3.444974 
3697.000000	3.427224 
3696.000000	3.417645 
3695.000000	3.393747 
3694.000000	3.352722 
3693.000000	3.321455 
3692.000000	3.332358 
3691.000000	3.391127 
3690.000000	3.468150 
3689.000000	3.523340 
3688.000000	3.542716 
3687.000000	3.541533 
3686.000000	3.534755 
3685.000000	3.524014 
3684.000000	3.508079 
3683.000000	3.489555 
3682.000000	3.473381 
3681.000000	3.461674 
3680.000000	3.451359 
3679.000000	3.422358 
3678.000000	3.376926 
3677.000000	3.320001 
3676.000000	3.441217 
3675.000000	3.371487 
3674.000000	3.388235 
3673.000000	3.372930 
3672.000000	3.310703 
3671.000000	3.260669 
3670.000000	3.255752 
3669.000000	3.292626 
3668.000000	3.330568 
3667.000000	3.339367 
3666.000000	3.314988 
3665.000000	3.274183 
3664.000000	3.239871 
3663.000000	3.229177 
3662.000000	3.246360 
3661.000000	3.280330 
3660.000000	3.311016 
3659.000000	3.323430 
3658.000000	3.317719 
3657.000000	3.310498 
3656.000000	3.317997 
3655.000000	3.339844 
3654.000000	3.361532 
3653.000000	3.366229 
3652.000000	3.346007 
3651.000000	3.305161 
3650.000000	3.253581 
3649.000000	3.201449 
3648.000000	3.159607 
3647.000000	3.133228 
3646.000000	3.120875 
3645.000000	3.119869 
3644.000000	3.128924 
3643.000000	3.148051 
3642.000000	3.174731 
3641.000000	3.200689 
3640.000000	3.220498 
3639.000000	3.239190 
3638.000000	3.263779 
3637.000000	3.292834 
3636.000000	3.316202 
3635.000000	3.325209 
3634.000000	3.319789 
3633.000000	3.303348 
3632.000000	3.276930 
3631.000000	3.244234 
3630.000000	3.219346 
3629.000000	3.211346 
3628.000000	3.205539 
3627.000000	3.189942 
3626.000000	3.175535 
3625.000000	3.177611 
3624.000000	3.196609 
3623.000000	3.217911 
3622.000000	3.227530 
3621.000000	3.226577 
3620.000000	3.226539 
3619.000000	3.229632 
3618.000000	3.223610 
3617.000000	3.202564 
3616.000000	3.177999 
3615.000000	3.162715 
3614.000000	3.151298 
3613.000000	3.123186 
3612.000000	3.069978 
3611.000000	3.015423 
3610.000000	2.997761 
3609.000000	3.031736 
3608.000000	3.096284 
3607.000000	3.160057 
3606.000000	3.209007 
3605.000000	3.243247 
3604.000000	3.258833 
3603.000000	3.245569 
3602.000000	3.202169 
3601.000000	3.145993 
3600.000000	3.097702 
3599.000000	3.060871 
3598.000000	3.022530 
3597.000000	2.975370 
3596.000000	2.935166 
3595.000000	2.932338 
3594.000000	2.981007 
3593.000000	3.061591 
3592.000000	3.137892 
3591.000000	3.185812 
3590.000000	3.206056 
3589.000000	3.215564 
3588.000000	3.226921 
3587.000000	3.235296 
3586.000000	3.229909 
3585.000000	3.210244 
3584.000000	3.189513 
3583.000000	3.185861 
3582.000000	3.203974 
3581.000000	3.226935 
3580.000000	3.227754 
3579.000000	3.193805 
3578.000000	3.141609 
3577.000000	3.103205 
3576.000000	3.099569 
3575.000000	3.129046 
3574.000000	3.176038 
3573.000000	3.222672 
3572.000000	3.252933 
3571.000000	3.254423 
3570.000000	3.225676 
3569.000000	3.179391 
3568.000000	3.131497 
3567.000000	3.084934 
3566.000000	3.031817 
3565.000000	2.974867 
3564.000000	2.935546 
3563.000000	2.934015 
3562.000000	2.967815 
3561.000000	3.015386 
3560.000000	3.057417 
3559.000000	3.093996 
3558.000000	3.138430 
3557.000000	3.192460 
3556.000000	3.234479 
3555.000000	3.237115 
3554.000000	3.192889 
3553.000000	3.122189 
3552.000000	3.056748 
3551.000000	3.015189 
3550.000000	2.995983 
3549.000000	2.989653 
3548.000000	2.992523 
3547.000000	3.010138 
3546.000000	3.042007 
3545.000000	3.067995 
3544.000000	3.065443 
3543.000000	3.038326 
3542.000000	3.017366 
3541.000000	3.027100 
3540.000000	3.060916 
3539.000000	3.093357 
3538.000000	3.109392 
3537.000000	3.111577 
3536.000000	3.102552 
3535.000000	3.076093 
3534.000000	3.029692 
3533.000000	2.974648 
3532.000000	2.926743 
3531.000000	2.893285 
3530.000000	2.871424 
3529.000000	2.853496 
3528.000000	2.831870 
3527.000000	2.805158 
3526.000000	2.785476 
3525.000000	2.792481 
3524.000000	2.834277 
3523.000000	2.896782 
3522.000000	2.958069 
3521.000000	3.010091 
3520.000000	3.056900 
3519.000000	3.096422 
3518.000000	3.113542 
3517.000000	3.092549 
3516.000000	3.036795 
3515.000000	2.971243 
3514.000000	2.925385 
3513.000000	2.918093 
3512.000000	2.950692 
3511.000000	3.006137 
3510.000000	3.055033 
3509.000000	3.069787 
3508.000000	3.043315 
3507.000000	2.998620 
3506.000000	2.973583 
3505.000000	2.988719 
3504.000000	3.030467 
3503.000000	3.065403 
3502.000000	3.072454 
3501.000000	3.058990 
3500.000000	3.044527 
3499.000000	3.038655 
3498.000000	3.037047 
3497.000000	3.031332 
3496.000000	3.020028 
3495.000000	3.011744 
3494.000000	3.019225 
3493.000000	3.045658 
3492.000000	3.071950 
3491.000000	3.065990 
3490.000000	3.013730 
3489.000000	2.940127 
3488.000000	2.892823 
3487.000000	2.897664 
3486.000000	2.932712 
3485.000000	2.953437 
3484.000000	2.941888 
3483.000000	2.924648 
3482.000000	2.942940 
3481.000000	3.008305 
3480.000000	3.091754 
3479.000000	3.153736 
3478.000000	3.175877 
3477.000000	3.164632 
3476.000000	3.135270 
3475.000000	3.099452 
3474.000000	3.062930 
3473.000000	3.027692 
3472.000000	2.997364 
3471.000000	2.982713 
3470.000000	2.995660 
3469.000000	3.031383 
3468.000000	3.062123 
3467.000000	3.061017 
3466.000000	3.033679 
3465.000000	3.013712 
3464.000000	3.023162 
3463.000000	3.048750 
3462.000000	3.061405 
3461.000000	3.052425 
3460.000000	3.039271 
3459.000000	3.038023 
3458.000000	3.043044 
3457.000000	3.037236 
3456.000000	3.014839 
3455.000000	2.988489 
3454.000000	2.976027 
3453.000000	2.984764 
3452.000000	3.008085 
3451.000000	3.035728 
3450.000000	3.063491 
3449.000000	3.088662 
3448.000000	3.099936 
3447.000000	3.079219 
3446.000000	3.018336 
3445.000000	2.932229 
3444.000000	2.849678 
3443.000000	2.793518 
3442.000000	2.773627 
3441.000000	2.792707 
3440.000000	2.848893 
3439.000000	2.927141 
3438.000000	2.996134 
3437.000000	3.026242 
3436.000000	3.014870 
3435.000000	2.990447 
3434.000000	2.987056 
3433.000000	3.016220 
3432.000000	3.062249 
3431.000000	3.100158 
3430.000000	3.112893 
3429.000000	3.092612 
3428.000000	3.039679 
3427.000000	2.967372 
3426.000000	2.899516 
3425.000000	2.857630 
3424.000000	2.851135 
3423.000000	2.878979 
3422.000000	2.932735 
3421.000000	2.992484 
3420.000000	3.029727 
3419.000000	3.030170 
3418.000000	3.010023 
3417.000000	2.995445 
3416.000000	2.987227 
3415.000000	2.961017 
3414.000000	2.905951 
3413.000000	2.849010 
3412.000000	2.830092 
3411.000000	2.859371 
3410.000000	2.910495 
3409.000000	2.952534 
3408.000000	2.978431 
3407.000000	3.002068 
3406.000000	3.034890 
3405.000000	3.070210 
3404.000000	3.089334 
3403.000000	3.080692 
3402.000000	3.050689 
3401.000000	3.016035 
3400.000000	2.991352 
3399.000000	2.986762 
3398.000000	3.007066 
3397.000000	3.042394 
3396.000000	3.062181 
3395.000000	3.034499 
3394.000000	2.961986 
3393.000000	2.888868 
3392.000000	2.862371 
3391.000000	2.890251 
3390.000000	2.938359 
3389.000000	2.964090 
3388.000000	2.951635 
3387.000000	2.919676 
3386.000000	2.902269 
3385.000000	2.920578 
3384.000000	2.964631 
3383.000000	3.003327 
3382.000000	3.014443 
3381.000000	2.998063 
3380.000000	2.960920 
3379.000000	2.902209 
3378.000000	2.824519 
3377.000000	2.752887 
3376.000000	2.727878 
3375.000000	2.770868 
3374.000000	2.862170 
3373.000000	2.956319 
3372.000000	3.015778 
3371.000000	3.031489 
3370.000000	3.017234 
3369.000000	2.992164 
3368.000000	2.972336 
3367.000000	2.970798 
3366.000000	2.992660 
3365.000000	3.027277 
3364.000000	3.049574 
3363.000000	3.039504 
3362.000000	3.005174 
3361.000000	2.976128 
3360.000000	2.970186 
3359.000000	2.975183 
3358.000000	2.966354 
3357.000000	2.936780 
3356.000000	2.905154 
3355.000000	2.896098 
3354.000000	2.916643 
3353.000000	2.950746 
3352.000000	2.975014 
3351.000000	2.979304 
3350.000000	2.975630 
3349.000000	2.989410 
3348.000000	3.037898 
3347.000000	3.113997 
3346.000000	3.188697 
3345.000000	3.227264 
3344.000000	3.209588 
3343.000000	3.144670 
3342.000000	3.066825 
3341.000000	3.011960 
3340.000000	2.992300 
3339.000000	2.992865 
3338.000000	2.989949 
3337.000000	2.968927 
3336.000000	2.929137 
3335.000000	2.882993 
3334.000000	2.851996 
3333.000000	2.852283 
3332.000000	2.877545 
3331.000000	2.903504 
3330.000000	2.915636 
3329.000000	2.925183 
3328.000000	2.950229 
3327.000000	2.986701 
3326.000000	3.006712 
3325.000000	2.985281 
3324.000000	2.924661 
3323.000000	2.851684 
3322.000000	2.795864 
3321.000000	2.769666 
3320.000000	2.764901 
3319.000000	2.769552 
3318.000000	2.785353 
3317.000000	2.821315 
3316.000000	2.871230 
3315.000000	2.908754 
3314.000000	2.913406 
3313.000000	2.894568 
3312.000000	2.880038 
3311.000000	2.885808 
3310.000000	2.905387 
3309.000000	2.924858 
3308.000000	2.939417 
3307.000000	2.954290 
3306.000000	2.976192 
3305.000000	3.005078 
3304.000000	3.029845 
3303.000000	3.034409 
3302.000000	3.012735 
3301.000000	2.975672 
3300.000000	2.939640 
3299.000000	2.912233 
3298.000000	2.893671 
3297.000000	2.887366 
3296.000000	2.899228 
3295.000000	2.927085 
3294.000000	2.959478 
3293.000000	2.983124 
3292.000000	2.985891 
3291.000000	2.960425 
3290.000000	2.912604 
3289.000000	2.865377 
3288.000000	2.847123 
3287.000000	2.868653 
3286.000000	2.916345 
3285.000000	2.968896 
3284.000000	3.011373 
3283.000000	3.035039 
3282.000000	3.033981 
3281.000000	3.008262 
3280.000000	2.970757 
3279.000000	2.945262 
3278.000000	2.951570 
3277.000000	2.989381 
3276.000000	3.038703 
3275.000000	3.078536 
3274.000000	3.103730 
3273.000000	3.120177 
3272.000000	3.126469 
3271.000000	3.113369 
3270.000000	3.083224 
3269.000000	3.053104 
3268.000000	3.030383 
3267.000000	2.998827 
3266.000000	2.943416 
3265.000000	2.881655 
3264.000000	2.853432 
3263.000000	2.879995 
3262.000000	2.944292 
3261.000000	3.009136 
3260.000000	3.044302 
3259.000000	3.040372 
3258.000000	3.010272 
3257.000000	2.980837 
3256.000000	2.972326 
3255.000000	2.983059 
3254.000000	3.002204 
3253.000000	3.029940 
3252.000000	3.070603 
3251.000000	3.111765 
3250.000000	3.126693 
3249.000000	3.101600 
3248.000000	3.048385 
3247.000000	2.987470 
3246.000000	2.933100 
3245.000000	2.899229 
3244.000000	2.901433 
3243.000000	2.940668 
3242.000000	2.996302 
3241.000000	3.044295 
3240.000000	3.073067 
3239.000000	3.077130 
3238.000000	3.049685 
3237.000000	2.995824 
3236.000000	2.944275 
3235.000000	2.927843 
3234.000000	2.951589 
3233.000000	2.990193 
3232.000000	3.014622 
3231.000000	3.013353 
3230.000000	2.993348 
3229.000000	2.972304 
3228.000000	2.970255 
3227.000000	2.998167 
3226.000000	3.047260 
3225.000000	3.093975 
3224.000000	3.119535 
3223.000000	3.121836 
3222.000000	3.109503 
3221.000000	3.089491 
3220.000000	3.062356 
3219.000000	3.027600 
3218.000000	2.990069 
3217.000000	2.959487 
3216.000000	2.943784 
3215.000000	2.942666 
3214.000000	2.948179 
3213.000000	2.951004 
3212.000000	2.946771 
3211.000000	2.940688 
3210.000000	2.946666 
3209.000000	2.974871 
3208.000000	3.014366 
3207.000000	3.034347 
3206.000000	3.014614 
3205.000000	2.974125 
3204.000000	2.957593 
3203.000000	2.990090 
3202.000000	3.051920 
3201.000000	3.102147 
3200.000000	3.116947 
3199.000000	3.097629 
3198.000000	3.055429 
3197.000000	3.000831 
3196.000000	2.942346 
3195.000000	2.886905 
3194.000000	2.838947 
3193.000000	2.805476 
3192.000000	2.802013 
3191.000000	2.843171 
3190.000000	2.924333 
3189.000000	3.015559 
3188.000000	3.075664 
3187.000000	3.077151 
3186.000000	3.025399 
3185.000000	2.959559 
3184.000000	2.929929 
3183.000000	2.960742 
3182.000000	3.030253 
3181.000000	3.091282 
3180.000000	3.111767 
3179.000000	3.095422 
3178.000000	3.068220 
3177.000000	3.053503 
3176.000000	3.062751 
3175.000000	3.099604 
3174.000000	3.160035 
3173.000000	3.227875 
3172.000000	3.278319 
3171.000000	3.292509 
3170.000000	3.270067 
3169.000000	3.227157 
3168.000000	3.184437 
3167.000000	3.156474 
3166.000000	3.146619 
3165.000000	3.145279 
3164.000000	3.135145 
3163.000000	3.107651 
3162.000000	3.077491 
3161.000000	3.073283 
3160.000000	3.106282 
3159.000000	3.152251 
3158.000000	3.171959 
3157.000000	3.147892 
3156.000000	3.095445 
3155.000000	3.043098 
3154.000000	3.012392 
3153.000000	3.014298 
3152.000000	3.048511 
3151.000000	3.097807 
3150.000000	3.133087 
3149.000000	3.135238 
3148.000000	3.110480 
3147.000000	3.081768 
3146.000000	3.070250 
3145.000000	3.085902 
3144.000000	3.124458 
3143.000000	3.163980 
3142.000000	3.173794 
3141.000000	3.141985 
3140.000000	3.093670 
3139.000000	3.071974 
3138.000000	3.098034 
3137.000000	3.153401 
3136.000000	3.200575 
3135.000000	3.215895 
3134.000000	3.204767 
3133.000000	3.192752 
3132.000000	3.202619 
3131.000000	3.234222 
3130.000000	3.264877 
3129.000000	3.271799 
3128.000000	3.253534 
3127.000000	3.226506 
3126.000000	3.202382 
3125.000000	3.175728 
3124.000000	3.136432 
3123.000000	3.088298 
3122.000000	3.050412 
3121.000000	3.041077 
3120.000000	3.061877 
3119.000000	3.096781 
3118.000000	3.125291 
3117.000000	3.136773 
3116.000000	3.133847 
3115.000000	3.123550 
3114.000000	3.108760 
3113.000000	3.090713 
3112.000000	3.074367 
3111.000000	3.063904 
3110.000000	3.054666 
3109.000000	3.037978 
3108.000000	3.017664 
3107.000000	3.015011 
3106.000000	3.048652 
3105.000000	3.109131 
3104.000000	3.159046 
3103.000000	3.163498 
3102.000000	3.122720 
3101.000000	3.073655 
3100.000000	3.056906 
3099.000000	3.081390 
3098.000000	3.120612 
3097.000000	3.139784 
3096.000000	3.124037 
3095.000000	3.084243 
3094.000000	3.043510 
3093.000000	3.020900 
3092.000000	3.022405 
3091.000000	3.040648 
3090.000000	3.062148 
3089.000000	3.078510 
3088.000000	3.091919 
3087.000000	3.109382 
3086.000000	3.133673 
3085.000000	3.160226 
3084.000000	3.180136 
3083.000000	3.184811 
3082.000000	3.170720 
3081.000000	3.144329 
3080.000000	3.122277 
3079.000000	3.121327 
3078.000000	3.144417 
3077.000000	3.176870 
3076.000000	3.196503 
3075.000000	3.188588 
3074.000000	3.155097 
3073.000000	3.113487 
3072.000000	3.086462 
3071.000000	3.087946 
3070.000000	3.113869 
3069.000000	3.144382 
3068.000000	3.156693 
3067.000000	3.141239 
3066.000000	3.110215 
3065.000000	3.089819 
3064.000000	3.099499 
3063.000000	3.135966 
3062.000000	3.177200 
3061.000000	3.200748 
3060.000000	3.197446 
3059.000000	3.172672 
3058.000000	3.142719 
3057.000000	3.129060 
3056.000000	3.144960 
3055.000000	3.181512 
3054.000000	3.212390 
3053.000000	3.218896 
3052.000000	3.207215 
3051.000000	3.195198 
3050.000000	3.187835 
3049.000000	3.174189 
3048.000000	3.145407 
3047.000000	3.108324 
3046.000000	3.078061 
3045.000000	3.060603 
3044.000000	3.046829 
3043.000000	3.023085 
3042.000000	2.989355 
3041.000000	2.967006 
3040.000000	2.982160 
3039.000000	3.037680 
3038.000000	3.106026 
3037.000000	3.154619 
3036.000000	3.176470 
3035.000000	3.192547 
3034.000000	3.225826 
3033.000000	3.277505 
3032.000000	3.327466 
3031.000000	3.351731 
3030.000000	3.338271 
3029.000000	3.291123 
3028.000000	3.224646 
3027.000000	3.156106 
3026.000000	3.101873 
3025.000000	3.075173 
3024.000000	3.080630 
3023.000000	3.108759 
3022.000000	3.140584 
3021.000000	3.161792 
3020.000000	3.171755 
3019.000000	3.178623 
3018.000000	3.188350 
3017.000000	3.199805 
3016.000000	3.207104 
3015.000000	3.203389 
3014.000000	3.184954 
3013.000000	3.156179 
3012.000000	3.128606 
3011.000000	3.111937 
3010.000000	3.107324 
3009.000000	3.107369 
3008.000000	3.102883 
3007.000000	3.092711 
3006.000000	3.086672 
3005.000000	3.099050 
3004.000000	3.133268 
3003.000000	3.171540 
3002.000000	3.188687 
3001.000000	3.177992 
3000.000000	3.157872 
2999.000000	3.151398 
2998.000000	3.165421 
2997.000000	3.193091 
2996.000000	3.226621 
2995.000000	3.257028 
2994.000000	3.268822 
2993.000000	3.252111 
2992.000000	3.218457 
2991.000000	3.192444 
2990.000000	3.186843 
2989.000000	3.194302 
2988.000000	3.204173 
2987.000000	3.216378 
2986.000000	3.234574 
2985.000000	3.254561 
2984.000000	3.265622 
2983.000000	3.260353 
2982.000000	3.241701 
2981.000000	3.223392 
2980.000000	3.222424 
2979.000000	3.245098 
2978.000000	3.277536 
2977.000000	3.293660 
2976.000000	3.274905 
2975.000000	3.222243 
2974.000000	3.153347 
2973.000000	3.092776 
2972.000000	3.059063 
2971.000000	3.051927 
2970.000000	3.052227 
2969.000000	3.040553 
2968.000000	3.016031 
2967.000000	2.992699 
2966.000000	2.981416 
2965.000000	2.983357 
2964.000000	2.996446 
2963.000000	3.016950 
2962.000000	3.037294 
2961.000000	3.054498 
2960.000000	3.078997 
2959.000000	3.119982 
2958.000000	3.161044 
2957.000000	3.167801 
2956.000000	3.126451 
2955.000000	3.060882 
2954.000000	3.004454 
2953.000000	2.968579 
2952.000000	2.947503 
2951.000000	2.939223 
2950.000000	2.946030 
2949.000000	2.962055 
2948.000000	2.976486 
2947.000000	2.987838 
2946.000000	3.003444 
2945.000000	3.023600 
2944.000000	3.035081 
2943.000000	3.023552 
2942.000000	2.988966 
2941.000000	2.947987 
2940.000000	2.923068 
2939.000000	2.926713 
2938.000000	2.952990 
2937.000000	2.984751 
2936.000000	3.008544 
2935.000000	3.019320 
2934.000000	3.013559 
2933.000000	2.989616 
2932.000000	2.959519 
2931.000000	2.949021 
2930.000000	2.973172 
2929.000000	3.014953 
2928.000000	3.037034 
2927.000000	3.014523 
2926.000000	2.954423 
2925.000000	2.889955 
2924.000000	2.861275 
2923.000000	2.891071 
2922.000000	2.963211 
2921.000000	3.027680 
2920.000000	3.040168 
2919.000000	2.999596 
2918.000000	2.941361 
2917.000000	2.897382 
2916.000000	2.872706 
2915.000000	2.856979 
2914.000000	2.844352 
2913.000000	2.837651 
2912.000000	2.842318 
2911.000000	2.861767 
2910.000000	2.894259 
2909.000000	2.932354 
2908.000000	2.969924 
2907.000000	3.008826 
2906.000000	3.051487 
2905.000000	3.089090 
2904.000000	3.107193 
2903.000000	3.104505 
2902.000000	3.096490 
2901.000000	3.095763 
2900.000000	3.097518 
2899.000000	3.091128 
2898.000000	3.079252 
2897.000000	3.076126 
2896.000000	3.088152 
2895.000000	3.104651 
2894.000000	3.110472 
2893.000000	3.103118 
2892.000000	3.093568 
2891.000000	3.090954 
2890.000000	3.090171 
2889.000000	3.077065 
2888.000000	3.045448 
2887.000000	3.007416 
2886.000000	2.983499 
2885.000000	2.983768 
2884.000000	3.002260 
2883.000000	3.028444 
2882.000000	3.058585 
2881.000000	3.091865 
2880.000000	3.120906 
2879.000000	3.134697 
2878.000000	3.131157 
2877.000000	3.120204 
2876.000000	3.111539 
2875.000000	3.105135 
2874.000000	3.097535 
2873.000000	3.093066 
2872.000000	3.101248 
2871.000000	3.122613 
2870.000000	3.144182 
2869.000000	3.153344 
2868.000000	3.153668 
2867.000000	3.160265 
2866.000000	3.177393 
2865.000000	3.186502 
2864.000000	3.163559 
2863.000000	3.109120 
2862.000000	3.055681 
2861.000000	3.041070 
2860.000000	3.074128 
2859.000000	3.125526 
2858.000000	3.150852 
2857.000000	3.126515 
2856.000000	3.069384 
2855.000000	3.023660 
2854.000000	3.025152 
2853.000000	3.073444 
2852.000000	3.136385 
2851.000000	3.178680 
2850.000000	3.186274 
2849.000000	3.168078 
2848.000000	3.141518 
2847.000000	3.119484 
2846.000000	3.108278 
2845.000000	3.112525 
2844.000000	3.135674 
2843.000000	3.173089 
2842.000000	3.208185 
2841.000000	3.222706 
2840.000000	3.214114 
2839.000000	3.198767 
2838.000000	3.194462 
2837.000000	3.203306 
2836.000000	3.214236 
2835.000000	3.216770 
2834.000000	3.206103 
2833.000000	3.180545 
2832.000000	3.146406 
2831.000000	3.124542 
2830.000000	3.137866 
2829.000000	3.185214 
2828.000000	3.236633 
2827.000000	3.263016 
2826.000000	3.264064 
2825.000000	3.258452 
2824.000000	3.253142 
2823.000000	3.237731 
2822.000000	3.209446 
2821.000000	3.188286 
2820.000000	3.196833 
2819.000000	3.230723 
2818.000000	3.261491 
2817.000000	3.269629 
2816.000000	3.265806 
2815.000000	3.273831 
2814.000000	3.297753 
2813.000000	3.316212 
2812.000000	3.309855 
2811.000000	3.284113 
2810.000000	3.259417 
2809.000000	3.245077 
2808.000000	3.232676 
2807.000000	3.216108 
2806.000000	3.207300 
2805.000000	3.224179 
2804.000000	3.265922 
2803.000000	3.308233 
2802.000000	3.326157 
2801.000000	3.316710 
2800.000000	3.297791 
2799.000000	3.289329 
2798.000000	3.297006 
2797.000000	3.311865 
2796.000000	3.321689 
2795.000000	3.321243 
2794.000000	3.312840 
2793.000000	3.299913 
2792.000000	3.283728 
2791.000000	3.266926 
2790.000000	3.256520 
2789.000000	3.258845 
2788.000000	3.270789 
2787.000000	3.280234 
2786.000000	3.278604 
2785.000000	3.270468 
2784.000000	3.266447 
2783.000000	3.267307 
2782.000000	3.260944 
2781.000000	3.237814 
2780.000000	3.205124 
2779.000000	3.181218 
2778.000000	3.177614 
2777.000000	3.190771 
2776.000000	3.210715 
2775.000000	3.232880 
2774.000000	3.259932 
2773.000000	3.295189 
2772.000000	3.336693 
2771.000000	3.376505 
2770.000000	3.404498 
2769.000000	3.414060 
2768.000000	3.405777 
2767.000000	3.386155 
2766.000000	3.363907 
2765.000000	3.348221 
2764.000000	3.346611 
2763.000000	3.358295 
2762.000000	3.369960 
2761.000000	3.365425 
2760.000000	3.343468 
2759.000000	3.321415 
2758.000000	3.317000 
2757.000000	3.330249 
2756.000000	3.347163 
2755.000000	3.356838 
2754.000000	3.359161 
2753.000000	3.358439 
2752.000000	3.356671 
2751.000000	3.353758 
2750.000000	3.349292 
2749.000000	3.343366 
2748.000000	3.338776 
2747.000000	3.340919 
2746.000000	3.351133 
2745.000000	3.361709 
2744.000000	3.362748 
2743.000000	3.352434 
2742.000000	3.334991 
2741.000000	3.312620 
2740.000000	3.289284 
2739.000000	3.280384 
2738.000000	3.304095 
2737.000000	3.356316 
2736.000000	3.403847 
2735.000000	3.413070 
2734.000000	3.382905 
2733.000000	3.342979 
2732.000000	3.322313 
2731.000000	3.325623 
2730.000000	3.337450 
2729.000000	3.339489 
2728.000000	3.323570 
2727.000000	3.296333 
2726.000000	3.274964 
2725.000000	3.275073 
2724.000000	3.298442 
2723.000000	3.332528 
2722.000000	3.361494 
2721.000000	3.376672 
2720.000000	3.378704 
2719.000000	3.373365 
2718.000000	3.366649 
2717.000000	3.361850 
2716.000000	3.359667 
2715.000000	3.360394 
2714.000000	3.364185 
2713.000000	3.368929 
2712.000000	3.370925 
2711.000000	3.369490 
2710.000000	3.368681 
2709.000000	3.372466 
2708.000000	3.381040 
2707.000000	3.393972 
2706.000000	3.412245 
2705.000000	3.431883 
2704.000000	3.439180 
2703.000000	3.421694 
2702.000000	3.385868 
2701.000000	3.356473 
2700.000000	3.354512 
2699.000000	3.378946 
2698.000000	3.412276 
2697.000000	3.438753 
2696.000000	3.451206 
2695.000000	3.444240 
2694.000000	3.411241 
2693.000000	3.354340 
2692.000000	3.293308 
2691.000000	3.255433 
2690.000000	3.252682 
2689.000000	3.271272 
2688.000000	3.287414 
2687.000000	3.292127 
2686.000000	3.296502 
2685.000000	3.313330 
2684.000000	3.339870 
2683.000000	3.362144 
2682.000000	3.372142 
2681.000000	3.375053 
2680.000000	3.379802 
2679.000000	3.386698 
2678.000000	3.385775 
2677.000000	3.365348 
2676.000000	3.322798 
2675.000000	3.270421 
2674.000000	3.232189 
2673.000000	3.231076 
2672.000000	3.273493 
2671.000000	3.342298 
2670.000000	3.404858 
2669.000000	3.432514 
2668.000000	3.418909 
2667.000000	3.383004 
2666.000000	3.352638 
2665.000000	3.341506 
2664.000000	3.340824 
2663.000000	3.332539 
2662.000000	3.309000 
2661.000000	3.280214 
2660.000000	3.265130 
2659.000000	3.277498 
2658.000000	3.316732 
2657.000000	3.367150 
2656.000000	3.405764 
2655.000000	3.416161 
2654.000000	3.399719 
2653.000000	3.373682 
2652.000000	3.356008 
2651.000000	3.350849 
2650.000000	3.348977 
2649.000000	3.342205 
2648.000000	3.334964 
2647.000000	3.338408 
2646.000000	3.353434 
2645.000000	3.365525 
2644.000000	3.361106 
2643.000000	3.345690 
2642.000000	3.339374 
2641.000000	3.354870 
2640.000000	3.387534 
2639.000000	3.427510 
2638.000000	3.470658 
2637.000000	3.510580 
2636.000000	3.530077 
2635.000000	3.515275 
2634.000000	3.476833 
2633.000000	3.444268 
2632.000000	3.435239 
2631.000000	3.439610 
2630.000000	3.438132 
2629.000000	3.427515 
2628.000000	3.418694 
2627.000000	3.416258 
2626.000000	3.411450 
2625.000000	3.396825 
2624.000000	3.379032 
2623.000000	3.371621 
2622.000000	3.379378 
2621.000000	3.394419 
2620.000000	3.404586 
2619.000000	3.401628 
2618.000000	3.384463 
2617.000000	3.361071 
2616.000000	3.346888 
2615.000000	3.354295 
2614.000000	3.379738 
2613.000000	3.404346 
2612.000000	3.411530 
2611.000000	3.402743 
2610.000000	3.392523 
2609.000000	3.390363 
2608.000000	3.393007 
2607.000000	3.394445 
2606.000000	3.395711 
2605.000000	3.398989 
2604.000000	3.398313 
2603.000000	3.385887 
2602.000000	3.365786 
2601.000000	3.351928 
2600.000000	3.350542 
2599.000000	3.351565 
2598.000000	3.341043 
2597.000000	3.318793 
2596.000000	3.300295 
2595.000000	3.301688 
2594.000000	3.325872 
2593.000000	3.363010 
2592.000000	3.400227 
2591.000000	3.429178 
2590.000000	3.448067 
2589.000000	3.460875 
2588.000000	3.474311 
2587.000000	3.490077 
2586.000000	3.498089 
2585.000000	3.483476 
2584.000000	3.446220 
2583.000000	3.409530 
2582.000000	3.400074 
2581.000000	3.420409 
2580.000000	3.447514 
2579.000000	3.458288 
2578.000000	3.449497 
2577.000000	3.432119 
2576.000000	3.415696 
2575.000000	3.403885 
2574.000000	3.398053 
2573.000000	3.396508 
2572.000000	3.393226 
2571.000000	3.384397 
2570.000000	3.374183 
2569.000000	3.368624 
2568.000000	3.366751 
2567.000000	3.363582 
2566.000000	3.359429 
2565.000000	3.360201 
2564.000000	3.369102 
2563.000000	3.382999 
2562.000000	3.398169 
2561.000000	3.416328 
2560.000000	3.442806 
2559.000000	3.479404 
2558.000000	3.519581 
2557.000000	3.550146 
2556.000000	3.559065 
2555.000000	3.544515 
2554.000000	3.515861 
2553.000000	3.483575 
2552.000000	3.449852 
2551.000000	3.412831 
2550.000000	3.377629 
2549.000000	3.356617 
2548.000000	3.357783 
2547.000000	3.376885 
2546.000000	3.401536 
2545.000000	3.419783 
2544.000000	3.425789 
2543.000000	3.422392 
2542.000000	3.419327 
2541.000000	3.425185 
2540.000000	3.439652 
2539.000000	3.455265 
2538.000000	3.465348 
2537.000000	3.467272 
2536.000000	3.460386 
2535.000000	3.446296 
2534.000000	3.430899 
2533.000000	3.420864 
2532.000000	3.417035 
2531.000000	3.415138 
2530.000000	3.413152 
2529.000000	3.413358 
2528.000000	3.416979 
2527.000000	3.422177 
2526.000000	3.427840 
2525.000000	3.433814 
2524.000000	3.436723 
2523.000000	3.432504 
2522.000000	3.425441 
2521.000000	3.426969 
2520.000000	3.441372 
2519.000000	3.459474 
2518.000000	3.470740 
2517.000000	3.475118 
2516.000000	3.477557 
2515.000000	3.477179 
2514.000000	3.469802 
2513.000000	3.457956 
2512.000000	3.450035 
2511.000000	3.449572 
2510.000000	3.452514 
2509.000000	3.455736 
2508.000000	3.461250 
2507.000000	3.469788 
2506.000000	3.475594 
2505.000000	3.470820 
2504.000000	3.453067 
2503.000000	3.427673 
2502.000000	3.404407 
2501.000000	3.392325 
2500.000000	3.395804 
2499.000000	3.413323 
2498.000000	3.438358 
2497.000000	3.461204 
2496.000000	3.473092 
2495.000000	3.472264 
2494.000000	3.466061 
2493.000000	3.464142 
2492.000000	3.468049 
2491.000000	3.469405 
2490.000000	3.460369 
2489.000000	3.444381 
2488.000000	3.434313 
2487.000000	3.440924 
2486.000000	3.464008 
2485.000000	3.491461 
2484.000000	3.505784 
2483.000000	3.497367 
2482.000000	3.475572 
2481.000000	3.461834 
2480.000000	3.466748 
2479.000000	3.477779 
2478.000000	3.474379 
2477.000000	3.451079 
2476.000000	3.420270 
2475.000000	3.396169 
2474.000000	3.383457 
2473.000000	3.380462 
2472.000000	3.385056 
2471.000000	3.394619 
2470.000000	3.406069 
2469.000000	3.419676 
2468.000000	3.439235 
2467.000000	3.465099 
2466.000000	3.489040 
2465.000000	3.498440 
2464.000000	3.485047 
2463.000000	3.450381 
2462.000000	3.405731 
2461.000000	3.367333 
2460.000000	3.347544 
2459.000000	3.348003 
2458.000000	3.362551 
2457.000000	3.386275 
2456.000000	3.417975 
2455.000000	3.453507 
2454.000000	3.482213 
2453.000000	3.494926 
2452.000000	3.494422 
2451.000000	3.493625 
2450.000000	3.502015 
2449.000000	3.515698 
2448.000000	3.521790 
2447.000000	3.511208 
2446.000000	3.486293 
2445.000000	3.456973 
2444.000000	3.431885 
2443.000000	3.415235 
2442.000000	3.410463 
2441.000000	3.421201 
2440.000000	3.445115 
2439.000000	3.469775 
2438.000000	3.479844 
2437.000000	3.469925 
2436.000000	3.449052 
2435.000000	3.432371 
2434.000000	3.429030 
2433.000000	3.436632 
2432.000000	3.444825 
2431.000000	3.443776 
2430.000000	3.431182 
2429.000000	3.412991 
2428.000000	3.398469 
2427.000000	3.395913 
2426.000000	3.411327 
2425.000000	3.444486 
2424.000000	3.482434 
2423.000000	3.502885 
2422.000000	3.492787 
2421.000000	3.463795 
2420.000000	3.443576 
2419.000000	3.450575 
2418.000000	3.480806 
2417.000000	3.518246 
2416.000000	3.550718 
2415.000000	3.572679 
2414.000000	3.579823 
2413.000000	3.569225 
2412.000000	3.545129 
2411.000000	3.519396 
2410.000000	3.503260 
2409.000000	3.498974 
2408.000000	3.499419 
2407.000000	3.494670 
2406.000000	3.480208 
2405.000000	3.462358 
2404.000000	3.454936 
2403.000000	3.466080 
2402.000000	3.487563 
2401.000000	3.500330 
2400.000000	3.492407 
2399.000000	3.470651 
2398.000000	3.454514 
2397.000000	3.458216 
2396.000000	3.478373 
2395.000000	3.498309 
2394.000000	3.503761 
2393.000000	3.494926 
2392.000000	3.485000 
2391.000000	3.486927 
2390.000000	3.500492 
2389.000000	3.513097 
2388.000000	3.513545 
2387.000000	3.503092 
2386.000000	3.491274 
2385.000000	3.482360 
2384.000000	3.469864 
2383.000000	3.446590 
2382.000000	3.417720 
2381.000000	3.400306 
2380.000000	3.407999 
2379.000000	3.435651 
2378.000000	3.460191 
2377.000000	3.461767 
2376.000000	3.445449 
2375.000000	3.439340 
2374.000000	3.465040 
2373.000000	3.508866 
2372.000000	3.530014 
2371.000000	3.501495 
2370.000000	3.437773 
2369.000000	3.378583 
2368.000000	3.351571 
2367.000000	3.363332 
2366.000000	3.421368 
2365.000000	3.536111 
2364.000000	3.684296 
2363.000000	3.787001 
2362.000000	3.759479 
2361.000000	3.574693 
2360.000000	3.295228 
2359.000000	3.073967 
2358.000000	3.040693 
2357.000000	3.168418 
2356.000000	3.294558 
2355.000000	3.293085 
2354.000000	3.196814 
2353.000000	3.118064 
2352.000000	3.126369 
2351.000000	3.202733 
2350.000000	3.281857 
2349.000000	3.321274 
2348.000000	3.312601 
2347.000000	3.291482 
2346.000000	3.296673 
2345.000000	3.341368 
2344.000000	3.399757 
2343.000000	3.401934 
2342.000000	3.317434 
2341.000000	3.190876 
2340.000000	3.106150 
2339.000000	3.092335 
2338.000000	3.104197 
2337.000000	3.094869 
2336.000000	3.077367 
2335.000000	3.086517 
2334.000000	3.122914 
2333.000000	3.155704 
2332.000000	3.183979 
2331.000000	3.235166 
2330.000000	3.313752 
2329.000000	3.397103 
2328.000000	3.447513 
2327.000000	3.455310 
2326.000000	3.418924 
2325.000000	3.346522 
2324.000000	3.264175 
2323.000000	3.198057 
2322.000000	3.169327 
2321.000000	3.169049 
2320.000000	3.183791 
2319.000000	3.204668 
2318.000000	3.235104 
2317.000000	3.274400 
2316.000000	3.313414 
2315.000000	3.344062 
2314.000000	3.366851 
2313.000000	3.388653 
2312.000000	3.408847 
2311.000000	3.422001 
2310.000000	3.427054 
2309.000000	3.433011 
2308.000000	3.444403 
2307.000000	3.453107 
2306.000000	3.449106 
2305.000000	3.434709 
2304.000000	3.423319 
2303.000000	3.423016 
2302.000000	3.432725 
2301.000000	3.448882 
2300.000000	3.469280 
2299.000000	3.489827 
2298.000000	3.503235 
2297.000000	3.508578 
2296.000000	3.511718 
2295.000000	3.516506 
2294.000000	3.515205 
2293.000000	3.500941 
2292.000000	3.480989 
2291.000000	3.471034 
2290.000000	3.477641 
2289.000000	3.493724 
2288.000000	3.508433 
2287.000000	3.514002 
2286.000000	3.505804 
2285.000000	3.483616 
2284.000000	3.458316 
2283.000000	3.449112 
2282.000000	3.466974 
2281.000000	3.500463 
2280.000000	3.526364 
2279.000000	3.534296 
2278.000000	3.536112 
2277.000000	3.546782 
2276.000000	3.561701 
2275.000000	3.560115 
2274.000000	3.531796 
2273.000000	3.496162 
2272.000000	3.487441 
2271.000000	3.519939 
2270.000000	3.571748 
2269.000000	3.605594 
2268.000000	3.603213 
2267.000000	3.576467 
2266.000000	3.548764 
2265.000000	3.533268 
2264.000000	3.530029 
2263.000000	3.537020 
2262.000000	3.552446 
2261.000000	3.567644 
2260.000000	3.568322 
2259.000000	3.547134 
2258.000000	3.512531 
2257.000000	3.481430 
2256.000000	3.467046 
2255.000000	3.473995 
2254.000000	3.500104 
2253.000000	3.536116 
2252.000000	3.565978 
2251.000000	3.576362 
2250.000000	3.568350 
2249.000000	3.556662 
2248.000000	3.554567 
2247.000000	3.562804 
2246.000000	3.573885 
2245.000000	3.581981 
2244.000000	3.584392 
2243.000000	3.577673 
2242.000000	3.559596 
2241.000000	3.535381 
2240.000000	3.516694 
2239.000000	3.511571 
2238.000000	3.517111 
2237.000000	3.523300 
2236.000000	3.523035 
2235.000000	3.518285 
2234.000000	3.518044 
2233.000000	3.529449 
2232.000000	3.548413 
2231.000000	3.560182 
2230.000000	3.553741 
2229.000000	3.536319 
2228.000000	3.528443 
2227.000000	3.541651 
2226.000000	3.564870 
2225.000000	3.576113 
2224.000000	3.565175 
2223.000000	3.542196 
2222.000000	3.527102 
2221.000000	3.535148 
2220.000000	3.569177 
2219.000000	3.617140 
2218.000000	3.655677 
2217.000000	3.664278 
2216.000000	3.642343 
2215.000000	3.610015 
2214.000000	3.587597 
2213.000000	3.575333 
2212.000000	3.557824 
2211.000000	3.527602 
2210.000000	3.498478 
2209.000000	3.492114 
2208.000000	3.513946 
2207.000000	3.546632 
2206.000000	3.566630 
2205.000000	3.564055 
2204.000000	3.547411 
2203.000000	3.533295 
2202.000000	3.533595 
2201.000000	3.549695 
2200.000000	3.573764 
2199.000000	3.594191 
2198.000000	3.602768 
2197.000000	3.599041 
2196.000000	3.588213 
2195.000000	3.575944 
2194.000000	3.567041 
2193.000000	3.568095 
2192.000000	3.585137 
2191.000000	3.614227 
2190.000000	3.638905 
2189.000000	3.644497 
2188.000000	3.634798 
2187.000000	3.628950 
2186.000000	3.640597 
2185.000000	3.663760 
2184.000000	3.679821 
2183.000000	3.674828 
2182.000000	3.649745 
2181.000000	3.619042 
2180.000000	3.601317 
2179.000000	3.605783 
2178.000000	3.623058 
2177.000000	3.632047 
2176.000000	3.620741 
2175.000000	3.598296 
2174.000000	3.582143 
2173.000000	3.576140 
2172.000000	3.569059 
2171.000000	3.555045 
2170.000000	3.546168 
2169.000000	3.557193 
2168.000000	3.581981 
2167.000000	3.594859 
2166.000000	3.578124 
2165.000000	3.542283 
2164.000000	3.514972 
2163.000000	3.513402 
2162.000000	3.532520 
2161.000000	3.557324 
2160.000000	3.578557 
2159.000000	3.594147 
2158.000000	3.602742 
2157.000000	3.603124 
2156.000000	3.598530 
2155.000000	3.595558 
2154.000000	3.597191 
2153.000000	3.600164 
2152.000000	3.600974 
2151.000000	3.600939 
2150.000000	3.601802 
2149.000000	3.600178 
2148.000000	3.591968 
2147.000000	3.580455 
2146.000000	3.574930 
2145.000000	3.580313 
2144.000000	3.591256 
2143.000000	3.598227 
2142.000000	3.596207 
2141.000000	3.585259 
2140.000000	3.566682 
2139.000000	3.543629 
2138.000000	3.524485 
2137.000000	3.519127 
2136.000000	3.527291 
2135.000000	3.534274 
2134.000000	3.525503 
2133.000000	3.505787 
2132.000000	3.497006 
2131.000000	3.513803 
2130.000000	3.546528 
2129.000000	3.571157 
2128.000000	3.573405 
2127.000000	3.560510 
2126.000000	3.550982 
2125.000000	3.556246 
2124.000000	3.571470 
2123.000000	3.581025 
2122.000000	3.574609 
2121.000000	3.561810 
2120.000000	3.567215 
2119.000000	3.603424 
2118.000000	3.650569 
2117.000000	3.672979 
2116.000000	3.658053 
2115.000000	3.627383 
2114.000000	3.605538 
2113.000000	3.592147 
2112.000000	3.575432 
2111.000000	3.560180 
2110.000000	3.562930 
2109.000000	3.583036 
2108.000000	3.597855 
2107.000000	3.590701 
2106.000000	3.569181 
2105.000000	3.550212 
2104.000000	3.539666 
2103.000000	3.535113 
2102.000000	3.537924 
2101.000000	3.551228 
2100.000000	3.571496 
2099.000000	3.591806 
2098.000000	3.610357 
2097.000000	3.628240 
2096.000000	3.641232 
2095.000000	3.641663 
2094.000000	3.628238 
2093.000000	3.607591 
2092.000000	3.586581 
2091.000000	3.569110 
2090.000000	3.560041 
2089.000000	3.565546 
2088.000000	3.586910 
2087.000000	3.617603 
2086.000000	3.648294 
2085.000000	3.672072 
2084.000000	3.684450 
2083.000000	3.682468 
2082.000000	3.666562 
2081.000000	3.642543 
2080.000000	3.620047 
2079.000000	3.607641 
2078.000000	3.607123 
2077.000000	3.611483 
2076.000000	3.610759 
2075.000000	3.601839 
2074.000000	3.591196 
2073.000000	3.586777 
2072.000000	3.589721 
2071.000000	3.595833 
2070.000000	3.601047 
2069.000000	3.602418 
2068.000000	3.598610 
2067.000000	3.593993 
2066.000000	3.598136 
2065.000000	3.614536 
2064.000000	3.631206 
2063.000000	3.630069 
2062.000000	3.606556 
2061.000000	3.574376 
2060.000000	3.551554 
2059.000000	3.546951 
2058.000000	3.558651 
2057.000000	3.577031 
2056.000000	3.587704 
2055.000000	3.580284 
2054.000000	3.559694 
2053.000000	3.543924 
2052.000000	3.546295 
2051.000000	3.563640 
2050.000000	3.584371 
2049.000000	3.602463 
2048.000000	3.618435 
2047.000000	3.631169 
2046.000000	3.637181 
2045.000000	3.638478 
2044.000000	3.643720 
2043.000000	3.657615 
2042.000000	3.673085 
2041.000000	3.677593 
2040.000000	3.665661 
2039.000000	3.643173 
2038.000000	3.621554 
2037.000000	3.610433 
2036.000000	3.613661 
2035.000000	3.627650 
2034.000000	3.642369 
2033.000000	3.646967 
2032.000000	3.637580 
2031.000000	3.620223 
2030.000000	3.604965 
2029.000000	3.596829 
2028.000000	3.593640 
2027.000000	3.592359 
2026.000000	3.594553 
2025.000000	3.603773 
2024.000000	3.619728 
2023.000000	3.637927 
2022.000000	3.653688 
2021.000000	3.664772 
2020.000000	3.671455 
2019.000000	3.676104 
2018.000000	3.681207 
2017.000000	3.684887 
2016.000000	3.680454 
2015.000000	3.664376 
2014.000000	3.642429 
2013.000000	3.623796 
2012.000000	3.610587 
2011.000000	3.597029 
2010.000000	3.578815 
2009.000000	3.559118 
2008.000000	3.544512 
2007.000000	3.539562 
2006.000000	3.547730 
2005.000000	3.571758 
2004.000000	3.608343 
2003.000000	3.646082 
2002.000000	3.672849 
2001.000000	3.684529 
2000.000000	3.682989 
1999.000000	3.669059 
1998.000000	3.644306 
1997.000000	3.617108 
1996.000000	3.600923 
1995.000000	3.604464 
1994.000000	3.624242 
1993.000000	3.646506 
1992.000000	3.657076 
1991.000000	3.652820 
1990.000000	3.643975 
1989.000000	3.642332 
1988.000000	3.648421 
1987.000000	3.653081 
1986.000000	3.650139 
1985.000000	3.643803 
1984.000000	3.642383 
1983.000000	3.648388 
1982.000000	3.657373 
1981.000000	3.664166 
1980.000000	3.665358 
1979.000000	3.656634 
1978.000000	3.634263 
1977.000000	3.602256 
1976.000000	3.575091 
1975.000000	3.568016 
1974.000000	3.583231 
1973.000000	3.607753 
1972.000000	3.625623 
1971.000000	3.631625 
1970.000000	3.633282 
1969.000000	3.640294 
1968.000000	3.653310 
1967.000000	3.663450 
1966.000000	3.661906 
1965.000000	3.648603 
1964.000000	3.631778 
1963.000000	3.621271 
1962.000000	3.621675 
1961.000000	3.628489 
1960.000000	3.630754 
1959.000000	3.621580 
1958.000000	3.607086 
1957.000000	3.600847 
1956.000000	3.607646 
1955.000000	3.615906 
1954.000000	3.610120 
1953.000000	3.589848 
1952.000000	3.573073 
1951.000000	3.579092 
1950.000000	3.608639 
1949.000000	3.642669 
1948.000000	3.659821 
1947.000000	3.654015 
1946.000000	3.635705 
1945.000000	3.617740 
1944.000000	3.603453 
1943.000000	3.589946 
1942.000000	3.579981 
1941.000000	3.583771 
1940.000000	3.605946 
1939.000000	3.637398 
1938.000000	3.662839 
1937.000000	3.673992 
1936.000000	3.675370 
1935.000000	3.676520 
1934.000000	3.680667 
1933.000000	3.683415 
1932.000000	3.680658 
1931.000000	3.673479 
1930.000000	3.663230 
1929.000000	3.646947 
1928.000000	3.622859 
1927.000000	3.600012 
1926.000000	3.593275 
1925.000000	3.606666 
1924.000000	3.629056 
1923.000000	3.648218 
1922.000000	3.664888 
1921.000000	3.685086 
1920.000000	3.704424 
1919.000000	3.711402 
1918.000000	3.702435 
1917.000000	3.686496 
1916.000000	3.672657 
1915.000000	3.661486 
1914.000000	3.654087 
1913.000000	3.656400 
1912.000000	3.668931 
1911.000000	3.680702 
1910.000000	3.679992 
1909.000000	3.669421 
1908.000000	3.662289 
1907.000000	3.665369 
1906.000000	3.672457 
1905.000000	3.674551 
1904.000000	3.671181 
1903.000000	3.668444 
1902.000000	3.668207 
1901.000000	3.662683 
1900.000000	3.642230 
1899.000000	3.610167 
1898.000000	3.585236 
1897.000000	3.584052 
1896.000000	3.603157 
1895.000000	3.622962 
1894.000000	3.631159 
1893.000000	3.634131 
1892.000000	3.641900 
1891.000000	3.653842 
1890.000000	3.663371 
1889.000000	3.668567 
1888.000000	3.672310 
1887.000000	3.675329 
1886.000000	3.676804 
1885.000000	3.676858 
1884.000000	3.672683 
1883.000000	3.659375 
1882.000000	3.640657 
1881.000000	3.632119 
1880.000000	3.644430 
1879.000000	3.667880 
1878.000000	3.681244 
1877.000000	3.672997 
1876.000000	3.649874 
1875.000000	3.628276 
1874.000000	3.622340 
1873.000000	3.636434 
1872.000000	3.662149 
1871.000000	3.684557 
1870.000000	3.695077 
1869.000000	3.697447 
1868.000000	3.697889 
1867.000000	3.692445 
1866.000000	3.675514 
1865.000000	3.654078 
1864.000000	3.638590 
1863.000000	3.627398 
1862.000000	3.613272 
1861.000000	3.601740 
1860.000000	3.607544 
1859.000000	3.630927 
1858.000000	3.652723 
1857.000000	3.657994 
1856.000000	3.651825 
1855.000000	3.646262 
1854.000000	3.643161 
1853.000000	3.639063 
1852.000000	3.636079 
1851.000000	3.639726 
1850.000000	3.651899 
1849.000000	3.669246 
1848.000000	3.686432 
1847.000000	3.696997 
1846.000000	3.694647 
1845.000000	3.677243 
1844.000000	3.652037 
1843.000000	3.636035 
1842.000000	3.643081 
1841.000000	3.674020 
1840.000000	3.718840 
1839.000000	3.758994 
1838.000000	3.773871 
1837.000000	3.756567 
1836.000000	3.720134 
1835.000000	3.682943 
1834.000000	3.655182 
1833.000000	3.639220 
1832.000000	3.632935 
1831.000000	3.631222 
1830.000000	3.630691 
1829.000000	3.637494 
1828.000000	3.657518 
1827.000000	3.678649 
1826.000000	3.680727 
1825.000000	3.660611 
1824.000000	3.642321 
1823.000000	3.648900 
1822.000000	3.670351 
1821.000000	3.679649 
1820.000000	3.667833 
1819.000000	3.653414 
1818.000000	3.659483 
1817.000000	3.688177 
1816.000000	3.720679 
1815.000000	3.734683 
1814.000000	3.721559 
1813.000000	3.690205 
1812.000000	3.659379 
1811.000000	3.643508 
1810.000000	3.640109 
1809.000000	3.636149 
1808.000000	3.623889 
1807.000000	3.603782 
1806.000000	3.579271 
1805.000000	3.558100 
1804.000000	3.554353 
1803.000000	3.576596 
1802.000000	3.613313 
1801.000000	3.637311 
1800.000000	3.634019 
1799.000000	3.618314 
1798.000000	3.611509 
1797.000000	3.617473 
1796.000000	3.626851 
1795.000000	3.632414 
1794.000000	3.636316 
1793.000000	3.643131 
1792.000000	3.649196 
1791.000000	3.646915 
1790.000000	3.636744 
1789.000000	3.629177 
1788.000000	3.637043 
1787.000000	3.663457 
1786.000000	3.692818 
1785.000000	3.700503 
1784.000000	3.681226 
1783.000000	3.655377 
1782.000000	3.640717 
1781.000000	3.627711 
1780.000000	3.594096 
1779.000000	3.543571 
1778.000000	3.507680 
1777.000000	3.510016 
1776.000000	3.542194 
1775.000000	3.577198 
1774.000000	3.600388 
1773.000000	3.616626 
1772.000000	3.628742 
1771.000000	3.629049 
1770.000000	3.612202 
1769.000000	3.582595 
1768.000000	3.552457 
1767.000000	3.535826 
1766.000000	3.541708 
1765.000000	3.567937 
1764.000000	3.601833 
1763.000000	3.624534 
1762.000000	3.620893 
1761.000000	3.597460 
1760.000000	3.578391 
1759.000000	3.577026 
1758.000000	3.587834 
1757.000000	3.599111 
1756.000000	3.601494 
1755.000000	3.594540 
1754.000000	3.583232 
1753.000000	3.570962 
1752.000000	3.555170 
1751.000000	3.527359 
1750.000000	3.486226 
1749.000000	3.446367 
1748.000000	3.425509 
1747.000000	3.429835 
1746.000000	3.454997 
1745.000000	3.491475 
1744.000000	3.527357 
1743.000000	3.550631 
1742.000000	3.556350 
1741.000000	3.550714 
1740.000000	3.542310 
1739.000000	3.530341 
1738.000000	3.510158 
1737.000000	3.484953 
1736.000000	3.464912 
1735.000000	3.455521 
1734.000000	3.443271 
1733.000000	3.425355 
1732.000000	3.421559 
1731.000000	3.432001 
1730.000000	3.434526 
1729.000000	3.413287 
1728.000000	3.378865 
1727.000000	3.358295 
1726.000000	3.363466 
1725.000000	3.379300 
1724.000000	3.381295 
1723.000000	3.360743 
1722.000000	3.327745 
1721.000000	3.298595 
1720.000000	3.286978 
1719.000000	3.302137 
1718.000000	3.336808 
1717.000000	3.369212 
1716.000000	3.393413 
1715.000000	3.419200 
1714.000000	3.447878 
1713.000000	3.469646 
1712.000000	3.476580 
1711.000000	3.470427 
1710.000000	3.458348 
1709.000000	3.446246 
1708.000000	3.435963 
1707.000000	3.429439 
1706.000000	3.432792 
1705.000000	3.452919 
1704.000000	3.491483 
1703.000000	3.534751 
1702.000000	3.562297 
1701.000000	3.548883 
1700.000000	3.479687 
1699.000000	3.402800 
1698.000000	3.369531 
1697.000000	3.369665 
1696.000000	3.379143 
1695.000000	3.389536 
1694.000000	3.401497 
1693.000000	3.406422 
1692.000000	3.389300 
1691.000000	3.345752 
1690.000000	3.294741 
1689.000000	3.272230 
1688.000000	3.291195 
1687.000000	3.328192 
1686.000000	3.358036 
1685.000000	3.371018 
1684.000000	3.357194 
1683.000000	3.321108 
1682.000000	3.285159 
1681.000000	3.265618 
1680.000000	3.270187 
1679.000000	3.288699 
1678.000000	3.299337 
1677.000000	3.294167 
1676.000000	3.288149 
1675.000000	3.298153 
1674.000000	3.318606 
1673.000000	3.326607 
1672.000000	3.309218 
1671.000000	3.275739 
1670.000000	3.251267 
1669.000000	3.261518 
1668.000000	3.300736 
1667.000000	3.332949 
1666.000000	3.336635 
1665.000000	3.324607 
1664.000000	3.327186 
1663.000000	3.355439 
1662.000000	3.381752 
1661.000000	3.381300 
1660.000000	3.367281 
1659.000000	3.366261 
1658.000000	3.381249 
1657.000000	3.392874 
1656.000000	3.384249 
1655.000000	3.364612 
1654.000000	3.357673 
1653.000000	3.359431 
1652.000000	3.360255 
1651.000000	3.356787 
1650.000000	3.342306 
1649.000000	3.327309 
1648.000000	3.329256 
1647.000000	3.353811 
1646.000000	3.384267 
1645.000000	3.400413 
1644.000000	3.404358 
1643.000000	3.412251 
1642.000000	3.431490 
1641.000000	3.451887 
1640.000000	3.455743 
1639.000000	3.437895 
1638.000000	3.407177 
1637.000000	3.374245 
1636.000000	3.341488 
1635.000000	3.316483 
1634.000000	3.310738 
1633.000000	3.316824 
1632.000000	3.326059 
1631.000000	3.340176 
1630.000000	3.362455 
1629.000000	3.392105 
1628.000000	3.425254 
1627.000000	3.459780 
1626.000000	3.492496 
1625.000000	3.513766 
1624.000000	3.510493 
1623.000000	3.479284 
1622.000000	3.435959 
1621.000000	3.397337 
1620.000000	3.365826 
1619.000000	3.344368 
1618.000000	3.343077 
1617.000000	3.358898 
1616.000000	3.364855 
1615.000000	3.347557 
1614.000000	3.327208 
1613.000000	3.324913 
1612.000000	3.339370 
1611.000000	3.352399 
1610.000000	3.353515 
1609.000000	3.354332 
1608.000000	3.370631 
1607.000000	3.399325 
1606.000000	3.424108 
1605.000000	3.437964 
1604.000000	3.446396 
1603.000000	3.453730 
1602.000000	3.456022 
1601.000000	3.450359 
1600.000000	3.445176 
1599.000000	3.453222 
1598.000000	3.474639 
1597.000000	3.493248 
1596.000000	3.493736 
1595.000000	3.479541 
1594.000000	3.468784 
1593.000000	3.472445 
1592.000000	3.482944 
1591.000000	3.485983 
1590.000000	3.477025 
1589.000000	3.463902 
1588.000000	3.456481 
1587.000000	3.457140 
1586.000000	3.460277 
1585.000000	3.459491 
1584.000000	3.452684 
1583.000000	3.444042 
1582.000000	3.441940 
1581.000000	3.449840 
1580.000000	3.463905 
1579.000000	3.479081 
1578.000000	3.492891 
1577.000000	3.498335 
1576.000000	3.487669 
1575.000000	3.474357 
1574.000000	3.477881 
1573.000000	3.494747 
1572.000000	3.510605 
1571.000000	3.515913 
1570.000000	3.508486 
1569.000000	3.499596 
1568.000000	3.503442 
1567.000000	3.518255 
1566.000000	3.531726 
1565.000000	3.530989 
1564.000000	3.507181 
1563.000000	3.465125 
1562.000000	3.421842 
1561.000000	3.396444 
1560.000000	3.409330 
1559.000000	3.442730 
1558.000000	3.480031 
1557.000000	3.533166 
1556.000000	3.583155 
1555.000000	3.607223 
1554.000000	3.595859 
1553.000000	3.556631 
1552.000000	3.510686 
1551.000000	3.477510 
1550.000000	3.467257 
1549.000000	3.477893 
1548.000000	3.498960 
1547.000000	3.520325 
1546.000000	3.538650 
1545.000000	3.548769 
1544.000000	3.537863 
1543.000000	3.508408 
1542.000000	3.495668 
1541.000000	3.545351 
1540.000000	3.638227 
1539.000000	3.679527 
1538.000000	3.629341 
1537.000000	3.534486 
1536.000000	3.445155 
1535.000000	3.386960 
1534.000000	3.373457 
1533.000000	3.406133 
1532.000000	3.467856 
1531.000000	3.532776 
1530.000000	3.583622 
1529.000000	3.613074 
1528.000000	3.616586 
1527.000000	3.590876 
1526.000000	3.543138 
1525.000000	3.494292 
1524.000000	3.460967 
1523.000000	3.443874 
1522.000000	3.436184 
1521.000000	3.443737 
1520.000000	3.479842 
1519.000000	3.532229 
1518.000000	3.569177 
1517.000000	3.564379 
1516.000000	3.522918 
1515.000000	3.484982 
1514.000000	3.479691 
1513.000000	3.502474 
1512.000000	3.530961 
1511.000000	3.543809 
1510.000000	3.538590 
1509.000000	3.531184 
1508.000000	3.538438 
1507.000000	3.543906 
1506.000000	3.526194 
1505.000000	3.507098 
1504.000000	3.501361 
1503.000000	3.502476 
1502.000000	3.502208 
1501.000000	3.494984 
1500.000000	3.483415 
1499.000000	3.475498 
1498.000000	3.473608 
1497.000000	3.469040 
1496.000000	3.456400 
1495.000000	3.439516 
1494.000000	3.420009 
1493.000000	3.399236 
1492.000000	3.388220 
1491.000000	3.403144 
1490.000000	3.443170 
1489.000000	3.483997 
1488.000000	3.507374 
1487.000000	3.519563 
1486.000000	3.533804 
1485.000000	3.552893 
1484.000000	3.566576 
1483.000000	3.563675 
1482.000000	3.545646 
1481.000000	3.525896 
1480.000000	3.516894 
1479.000000	3.517439 
1478.000000	3.520126 
1477.000000	3.523837 
1476.000000	3.534441 
1475.000000	3.551723 
1474.000000	3.561444 
1473.000000	3.543621 
1472.000000	3.498816 
1471.000000	3.457793 
1470.000000	3.443632 
1469.000000	3.455007 
1468.000000	3.481120 
1467.000000	3.506716 
1466.000000	3.514182 
1465.000000	3.496415 
1464.000000	3.469798 
1463.000000	3.458075 
1462.000000	3.462902 
1461.000000	3.471191 
1460.000000	3.474723 
1459.000000	3.474018 
1458.000000	3.470782 
1457.000000	3.462044 
1456.000000	3.454611 
1455.000000	3.454375 
1454.000000	3.453740 
1453.000000	3.449799 
1452.000000	3.448662 
1451.000000	3.457116 
1450.000000	3.473599 
1449.000000	3.487174 
1448.000000	3.488377 
1447.000000	3.479836 
1446.000000	3.474534 
1445.000000	3.480524 
1444.000000	3.492173 
1443.000000	3.498503 
1442.000000	3.492137 
1441.000000	3.476094 
1440.000000	3.462434 
1439.000000	3.463664 
1438.000000	3.484740 
1437.000000	3.517562 
1436.000000	3.547725 
1435.000000	3.570672 
1434.000000	3.587333 
1433.000000	3.593297 
1432.000000	3.584085 
1431.000000	3.561643 
1430.000000	3.535385 
1429.000000	3.516124 
1428.000000	3.511768 
1427.000000	3.523807 
1426.000000	3.547378 
1425.000000	3.573995 
1424.000000	3.593567 
1423.000000	3.603647 
1422.000000	3.607129 
1421.000000	3.600778 
1420.000000	3.574815 
1419.000000	3.524919 
1418.000000	3.465391 
1417.000000	3.415931 
1416.000000	3.386780 
1415.000000	3.387801 
1414.000000	3.423908 
1413.000000	3.478433 
1412.000000	3.519076 
1411.000000	3.526401 
1410.000000	3.509128 
1409.000000	3.486577 
1408.000000	3.468137 
1407.000000	3.453628 
1406.000000	3.444454 
1405.000000	3.445994 
1404.000000	3.459421 
1403.000000	3.479786 
1402.000000	3.499711 
1401.000000	3.511230 
1400.000000	3.505009 
1399.000000	3.476990 
1398.000000	3.439369 
1397.000000	3.412092 
1396.000000	3.406324 
1395.000000	3.422470 
1394.000000	3.455031 
1393.000000	3.494034 
1392.000000	3.527726 
1391.000000	3.549422 
1390.000000	3.558609 
1389.000000	3.555372 
1388.000000	3.537266 
1387.000000	3.507592 
1386.000000	3.484132 
1385.000000	3.485364 
1384.000000	3.510065 
1383.000000	3.539767 
1382.000000	3.555855 
1381.000000	3.554838 
1380.000000	3.548897 
1379.000000	3.550961 
1378.000000	3.560993 
1377.000000	3.565594 
1376.000000	3.551275 
1375.000000	3.520440 
1374.000000	3.496104 
1373.000000	3.498905 
1372.000000	3.518211 
1371.000000	3.524853 
1370.000000	3.510403 
1369.000000	3.500714 
1368.000000	3.525980 
1367.000000	3.582531 
1366.000000	3.636941 
1365.000000	3.663693 
1364.000000	3.662221 
1363.000000	3.642144 
1362.000000	3.608653 
1361.000000	3.567339 
1360.000000	3.531880 
1359.000000	3.517994 
1358.000000	3.532577 
1357.000000	3.568574 
1356.000000	3.607023 
1355.000000	3.626050 
1354.000000	3.615369 
1353.000000	3.585856 
1352.000000	3.561779 
1351.000000	3.558736 
1350.000000	3.570293 
1349.000000	3.579835 
1348.000000	3.581586 
1347.000000	3.583503 
1346.000000	3.589963 
1345.000000	3.592411 
1344.000000	3.581620 
1343.000000	3.563107 
1342.000000	3.552909 
1341.000000	3.559670 
1340.000000	3.576011 
1339.000000	3.590004 
1338.000000	3.599521 
1337.000000	3.607021 
1336.000000	3.606939 
1335.000000	3.589662 
1334.000000	3.557189 
1333.000000	3.527431 
1332.000000	3.517101 
1331.000000	3.523602 
1330.000000	3.531841 
1329.000000	3.535908 
1328.000000	3.545742 
1327.000000	3.572923 
1326.000000	3.615231 
1325.000000	3.655600 
1324.000000	3.673164 
1323.000000	3.658340 
1322.000000	3.623095 
1321.000000	3.594670 
1320.000000	3.591615 
1319.000000	3.606504 
1318.000000	3.617533 
1317.000000	3.614635 
1316.000000	3.606343 
1315.000000	3.601447 
1314.000000	3.596053 
1313.000000	3.585891 
1312.000000	3.580182 
1311.000000	3.591038 
1310.000000	3.616508 
1309.000000	3.644118 
1308.000000	3.664213 
1307.000000	3.671353 
1306.000000	3.661158 
1305.000000	3.638253 
1304.000000	3.622113 
1303.000000	3.630401 
1302.000000	3.656404 
1301.000000	3.675744 
1300.000000	3.674028 
1299.000000	3.655992 
1298.000000	3.629764 
1297.000000	3.598694 
1296.000000	3.573547 
1295.000000	3.573974 
1294.000000	3.604884 
1293.000000	3.643216 
1292.000000	3.660284 
1291.000000	3.650970 
1290.000000	3.631831 
1289.000000	3.616697 
1288.000000	3.605214 
1287.000000	3.592538 
1286.000000	3.581383 
1285.000000	3.582787 
1284.000000	3.606455 
1283.000000	3.648513 
1282.000000	3.687738 
1281.000000	3.701292 
1280.000000	3.689578 
1279.000000	3.677666 
1278.000000	3.684235 
1277.000000	3.697309 
1276.000000	3.692398 
1275.000000	3.668101 
1274.000000	3.648722 
1273.000000	3.651040 
1272.000000	3.662201 
1271.000000	3.656729 
1270.000000	3.627344 
1269.000000	3.592255 
1268.000000	3.576025 
1267.000000	3.588615 
1266.000000	3.620923 
1265.000000	3.657587 
1264.000000	3.692926 
1263.000000	3.730386 
1262.000000	3.765838 
1261.000000	3.781131 
1260.000000	3.762647 
1259.000000	3.721047 
1258.000000	3.683545 
1257.000000	3.669205 
1256.000000	3.679347 
1255.000000	3.706033 
1254.000000	3.737747 
1253.000000	3.758501 
1252.000000	3.754091 
1251.000000	3.726577 
1250.000000	3.696563 
1249.000000	3.683409 
1248.000000	3.688219 
1247.000000	3.700867 
1246.000000	3.714003 
1245.000000	3.724227 
1244.000000	3.729291 
1243.000000	3.729480 
1242.000000	3.726406 
1241.000000	3.721093 
1240.000000	3.716631 
1239.000000	3.718666 
1238.000000	3.727428 
1237.000000	3.730917 
1236.000000	3.714456 
1235.000000	3.679435 
1234.000000	3.646277 
1233.000000	3.635983 
1232.000000	3.652317 
1231.000000	3.682156 
1230.000000	3.707392 
1229.000000	3.716720 
1228.000000	3.713965 
1227.000000	3.715839 
1226.000000	3.734285 
1225.000000	3.760581 
1224.000000	3.774569 
1223.000000	3.769869 
1222.000000	3.758396 
1221.000000	3.747131 
1220.000000	3.725766 
1219.000000	3.686696 
1218.000000	3.645371 
1217.000000	3.627732 
1216.000000	3.642847 
1215.000000	3.677999 
1214.000000	3.715152 
1213.000000	3.741186 
1212.000000	3.746012 
1211.000000	3.725785 
1210.000000	3.692235 
1209.000000	3.668329 
1208.000000	3.667467 
1207.000000	3.679830 
1206.000000	3.683583 
1205.000000	3.669332 
1204.000000	3.649528 
1203.000000	3.640152 
1202.000000	3.635035 
1201.000000	3.607389 
1200.000000	3.544014 
1199.000000	3.471883 
1198.000000	3.439528 
1197.000000	3.471345 
1196.000000	3.545542 
1195.000000	3.617236 
1194.000000	3.657158 
1193.000000	3.664241 
1192.000000	3.651435 
1191.000000	3.634146 
1190.000000	3.629767 
1189.000000	3.654542 
1188.000000	3.713566 
1187.000000	3.792625 
1186.000000	3.859850 
1185.000000	3.879137 
1184.000000	3.833634 
1183.000000	3.745226 
1182.000000	3.663712 
1181.000000	3.625319 
1180.000000	3.623595 
1179.000000	3.628367 
1178.000000	3.627825 
1177.000000	3.636793 
1176.000000	3.664110 
1175.000000	3.692218 
1174.000000	3.698661 
1173.000000	3.685096 
1172.000000	3.673661 
1171.000000	3.680197 
1170.000000	3.699804 
1169.000000	3.716351 
1168.000000	3.716676 
1167.000000	3.694118 
1166.000000	3.651340 
1165.000000	3.605917 
1164.000000	3.582290 
1163.000000	3.589669 
1162.000000	3.611263 
1161.000000	3.620657 
1160.000000	3.607253 
1159.000000	3.583310 
1158.000000	3.570067 
1157.000000	3.582360 
1156.000000	3.624230 
1155.000000	3.686861 
1154.000000	3.744336 
1153.000000	3.762867 
1152.000000	3.728307 
1151.000000	3.666371 
1150.000000	3.627063 
1149.000000	3.641379 
1148.000000	3.693730 
1147.000000	3.736570 
1146.000000	3.730876 
1145.000000	3.676758 
1144.000000	3.606635 
1143.000000	3.551123 
1142.000000	3.516839 
1141.000000	3.494687 
1140.000000	3.479602 
1139.000000	3.475269 
1138.000000	3.483784 
1137.000000	3.500994 
1136.000000	3.522453 
1135.000000	3.545039 
1134.000000	3.562513 
1133.000000	3.568666 
1132.000000	3.566493 
1131.000000	3.565864 
1130.000000	3.569137 
1129.000000	3.567059 
1128.000000	3.553590 
1127.000000	3.536075 
1126.000000	3.519939 
1125.000000	3.495476 
1124.000000	3.459122 
1123.000000	3.433271 
1122.000000	3.447536 
1121.000000	3.506583 
1120.000000	3.581794 
1119.000000	3.635364 
1118.000000	3.648989 
1117.000000	3.629386 
1116.000000	3.597302 
1115.000000	3.575286 
1114.000000	3.578321 
1113.000000	3.610551 
1112.000000	3.666488 
1111.000000	3.728258 
1110.000000	3.764006 
1109.000000	3.745864 
1108.000000	3.682351 
1107.000000	3.622549 
1106.000000	3.611403 
1105.000000	3.645266 
1104.000000	3.686185 
1103.000000	3.710601 
1102.000000	3.720295 
1101.000000	3.712465 
1100.000000	3.670618 
1099.000000	3.595149 
1098.000000	3.522181 
1097.000000	3.494411 
1096.000000	3.520860 
1095.000000	3.575438 
1094.000000	3.627092 
1093.000000	3.662460 
1092.000000	3.682610 
1091.000000	3.689966 
1090.000000	3.685761 
1089.000000	3.670173 
1088.000000	3.641138 
1087.000000	3.598825 
1086.000000	3.548732 
1085.000000	3.505672 
1084.000000	3.498102 
1083.000000	3.550484 
1082.000000	3.646686 
1081.000000	3.724898 
1080.000000	3.729442 
1079.000000	3.663975 
1078.000000	3.582316 
1077.000000	3.537059 
1076.000000	3.550867 
1075.000000	3.618136 
1074.000000	3.705401 
1073.000000	3.757975 
1072.000000	3.740406 
1071.000000	3.678732 
1070.000000	3.634515 
1069.000000	3.634258 
1068.000000	3.652027 
1067.000000	3.654566 
1066.000000	3.633660 
1065.000000	3.597753 
1064.000000	3.563258 
1063.000000	3.558851 
1062.000000	3.601659 
1061.000000	3.656135 
1060.000000	3.657766 
1059.000000	3.595386 
1058.000000	3.529338 
1057.000000	3.508281 
1056.000000	3.509673 
1055.000000	3.487020 
1054.000000	3.437522 
1053.000000	3.392913 
1052.000000	3.371612 
1051.000000	3.375416 
1050.000000	3.414507 
1049.000000	3.496481 
1048.000000	3.597041 
1047.000000	3.673685 
1046.000000	3.709057 
1045.000000	3.718753 
1044.000000	3.721142 
1043.000000	3.722515 
1042.000000	3.725314 
1041.000000	3.725657 
1040.000000	3.705952 
1039.000000	3.655340 
1038.000000	3.596773 
1037.000000	3.567699 
1036.000000	3.572681 
1035.000000	3.579187 
1034.000000	3.565084 
1033.000000	3.550217 
1032.000000	3.567991 
1031.000000	3.617481 
1030.000000	3.660634 
1029.000000	3.665980 
1028.000000	3.644809 
1027.000000	3.640313 
1026.000000	3.680001 
1025.000000	3.742593 
1024.000000	3.778730 
1023.000000	3.762197 
1022.000000	3.714610 
1021.000000	3.682588 
1020.000000	3.700933 
1019.000000	3.773924 
1018.000000	3.871634 
1017.000000	3.942704 
1016.000000	3.949928 
1015.000000	3.899918 
1014.000000	3.829916 
1013.000000	3.769032 
1012.000000	3.728357 
1011.000000	3.717890 
1010.000000	3.738830 
1009.000000	3.762781 
1008.000000	3.759073 
1007.000000	3.741823 
1006.000000	3.731361 
1005.000000	3.653453 
1004.000000	3.372665 
1003.000000	2.898619 
1002.000000	2.508340 
1001.000000	2.520367 
1000.000000	2.923595 
999.000000	 3.418345 
998.000000	 3.747729 
997.000000	 3.867326 
996.000000	 3.885456 
995.000000	 3.884063 
994.000000	 3.859754 
993.000000	 3.818015 
992.000000	 3.806559 
991.000000	 3.842260 
990.000000	 3.885507 
989.000000	 3.905457 
988.000000	 3.918179 
987.000000	 3.942575 
986.000000	 3.959989 
985.000000	 3.943464 
984.000000	 3.901089 
983.000000	 3.866586 
982.000000	 3.861486 
981.000000	 3.879617 
980.000000	 3.896207 
979.000000	 3.885479 
978.000000	 3.843589 
977.000000	 3.800849 
976.000000	 3.797912 
975.000000	 3.843493 
974.000000	 3.904901 
973.000000	 3.944826 
972.000000	 3.957335 
971.000000	 3.962604 
970.000000	 3.977787 
969.000000	 4.001575 
968.000000	 4.022123 
967.000000	 4.031642 
966.000000	 4.034037 
965.000000	 4.040731 
964.000000	 4.054781 
963.000000	 4.059729 
962.000000	 4.033101 
961.000000	 3.975233 
960.000000	 3.917419 
959.000000	 3.896053 
958.000000	 3.921585 
957.000000	 3.977522 
956.000000	 4.042571 
955.000000	 4.102609 
954.000000	 4.148257 
953.000000	 4.172523 
952.000000	 4.173149 
951.000000	 4.155534 
950.000000	 4.130687 
949.000000	 4.108939 
948.000000	 4.094059 
947.000000	 4.083281 
946.000000	 4.076654 
945.000000	 4.084284 
944.000000	 4.115699 
943.000000	 4.160733 
942.000000	 4.190700 
941.000000	 4.185368 
940.000000	 4.153762 
939.000000	 4.120930 
938.000000	 4.099211 
937.000000	 4.083573 
936.000000	 4.070835 
935.000000	 4.067380 
934.000000	 4.074684 
933.000000	 4.082576 
932.000000	 4.086040 
931.000000	 4.096814 
930.000000	 4.125649 
929.000000	 4.159452 
928.000000	 4.170009 
927.000000	 4.147680 
926.000000	 4.115516 
925.000000	 4.102862 
924.000000	 4.111672 
923.000000	 4.117410 
922.000000	 4.103494 
921.000000	 4.088210 
920.000000	 4.109187 
919.000000	 4.176482 
918.000000	 4.246173 
917.000000	 4.255291 
916.000000	 4.190364 
915.000000	 4.110332 
914.000000	 4.089101 
913.000000	 4.141322 
912.000000	 4.218069 
911.000000	 4.267913 
910.000000	 4.279765 
909.000000	 4.265924 
908.000000	 4.231211 
907.000000	 4.175361 
906.000000	 4.110305 
905.000000	 4.058306 
904.000000	 4.039353 
903.000000	 4.066961 
902.000000	 4.142242 
901.000000	 4.237882 
900.000000	 4.300163 
899.000000	 4.290841 
898.000000	 4.228019 
897.000000	 4.171714 
896.000000	 4.168959 
895.000000	 4.219044 
894.000000	 4.283932 
893.000000	 4.318081 
892.000000	 4.295419 
891.000000	 4.228261 
890.000000	 4.159647 
889.000000	 4.122533 
888.000000	 4.110558 
887.000000	 4.101484 
886.000000	 4.097312 
885.000000	 4.118797 
884.000000	 4.168953 
883.000000	 4.230840 
882.000000	 4.299336 
881.000000	 4.382256 
880.000000	 4.462620 
879.000000	 4.493453 
878.000000	 4.451922 
877.000000	 4.373091 
876.000000	 4.307253 
875.000000	 4.266106 
874.000000	 4.233184 
873.000000	 4.206164 
872.000000	 4.194496 
871.000000	 4.192438 
870.000000	 4.189099 
869.000000	 4.193416 
868.000000	 4.223494 
867.000000	 4.275458 
866.000000	 4.325728 
865.000000	 4.357986 
864.000000	 4.366554 
863.000000	 4.345409 
862.000000	 4.298833 
861.000000	 4.258681 
860.000000	 4.264139 
859.000000	 4.315223 
858.000000	 4.364771 
857.000000	 4.368271 
856.000000	 4.330873 
855.000000	 4.297078 
854.000000	 4.303464 
853.000000	 4.350229 
852.000000	 4.409938 
851.000000	 4.448531 
850.000000	 4.441682 
849.000000	 4.386292 
848.000000	 4.300109 
847.000000	 4.209781 
846.000000	 4.142161 
845.000000	 4.120695 
844.000000	 4.153372 
843.000000	 4.216022 
842.000000	 4.259827 
841.000000	 4.257112 
840.000000	 4.234706 
839.000000	 4.239757 
838.000000	 4.280096 
837.000000	 4.313633 
836.000000	 4.298146 
835.000000	 4.242819 
834.000000	 4.194170 
833.000000	 4.176554 
832.000000	 4.162820 
831.000000	 4.105079 
830.000000	 3.989097 
829.000000	 3.859120 
828.000000	 3.793371 
827.000000	 3.844471 
826.000000	 3.989296 
825.000000	 4.143916 
824.000000	 4.231925 
823.000000	 4.238527 
822.000000	 4.206529 
821.000000	 4.187166 
820.000000	 4.201406 
819.000000	 4.238616 
818.000000	 4.275197 
817.000000	 4.292348 
816.000000	 4.286165 
815.000000	 4.270683 
814.000000	 4.267711 
813.000000	 4.289865 
812.000000	 4.336181 
811.000000	 4.397280 
810.000000	 4.459866 
809.000000	 4.512319 
808.000000	 4.546902 
807.000000	 4.555540 
806.000000	 4.526645 
805.000000	 4.453360 
804.000000	 4.353858 
803.000000	 4.277864 
802.000000	 4.271019 
801.000000	 4.323028 
800.000000	 4.368915 
799.000000	 4.358373 
798.000000	 4.313016 
797.000000	 4.295497 
796.000000	 4.333881 
795.000000	 4.404007 
794.000000	 4.476219 
793.000000	 4.542632 
792.000000	 4.592514 
791.000000	 4.597200 
790.000000	 4.546373 
789.000000	 4.480979 
788.000000	 4.458406 
787.000000	 4.489446 
786.000000	 4.531917 
785.000000	 4.540299 
784.000000	 4.507681 
783.000000	 4.463470 
782.000000	 4.444383 
781.000000	 4.472780 
780.000000	 4.546016 
779.000000	 4.631790 
778.000000	 4.683339 
777.000000	 4.675965 
776.000000	 4.631254 
775.000000	 4.598409 
774.000000	 4.608523 
773.000000	 4.647158 
772.000000	 4.671139 
771.000000	 4.652333 
770.000000	 4.604136 
769.000000	 4.563999 
768.000000	 4.551859 
767.000000	 4.552663 
766.000000	 4.544195 
765.000000	 4.531418 
764.000000	 4.539027 
763.000000	 4.574093 
762.000000	 4.613733 
761.000000	 4.632825 
760.000000	 4.628607 
759.000000	 4.613098 
758.000000	 4.596418 
757.000000	 4.585958 
756.000000	 4.588671 
755.000000	 4.601131 
754.000000	 4.602934 
753.000000	 4.574105 
752.000000	 4.519833 
751.000000	 4.465803 
750.000000	 4.430247 
749.000000	 4.412090 
748.000000	 4.402704 
747.000000	 4.397515 
746.000000	 4.395685 
745.000000	 4.397799 
744.000000	 4.410452 
743.000000	 4.447389 
742.000000	 4.515049 
741.000000	 4.592253 
740.000000	 4.631657 
739.000000	 4.596027 
738.000000	 4.494579 
737.000000	 4.381157 
736.000000	 4.318389 
735.000000	 4.332623 
734.000000	 4.397703 
733.000000	 4.467608 
732.000000	 4.520041 
731.000000	 4.560577 
730.000000	 4.595391 
729.000000	 4.620393 
728.000000	 4.632445 
727.000000	 4.634124 
726.000000	 4.622627 
725.000000	 4.579154 
724.000000	 4.486380 
723.000000	 4.365650 
722.000000	 4.281500 
721.000000	 4.292604 
720.000000	 4.391790 
719.000000	 4.501606 
718.000000	 4.542670 
717.000000	 4.503881 
716.000000	 4.447956 
715.000000	 4.455130 
714.000000	 4.549780 
713.000000	 4.676456 
712.000000	 4.749597 
711.000000	 4.725692 
710.000000	 4.632589 
709.000000	 4.535799 
708.000000	 4.483647 
707.000000	 4.475970 
706.000000	 4.473611 
705.000000	 4.449282 
704.000000	 4.428491 
703.000000	 4.462914 
702.000000	 4.559866 
701.000000	 4.657936 
700.000000	 4.691169 
699.000000	 4.661671 
698.000000	 4.627115 
697.000000	 4.630282 
696.000000	 4.666911 
695.000000	 4.717174 
694.000000	 4.771811 
693.000000	 4.816931 
692.000000	 4.826704 
691.000000	 4.787777 
690.000000	 4.714652 
689.000000	 4.636378 
688.000000	 4.584616 
687.000000	 4.587900 
686.000000	 4.646796 
685.000000	 4.714085 
684.000000	 4.735815 
683.000000	 4.726786 
682.000000	 4.765842 
681.000000	 4.885889 
680.000000	 5.004051 
679.000000	 5.010083 
678.000000	 4.897804 
677.000000	 4.765134 
676.000000	 4.702981 
675.000000	 4.705479 
674.000000	 4.728750 
673.000000	 4.769683 
672.000000	 4.845290 
671.000000	 4.929380 
670.000000	 4.960849 
669.000000	 4.872070 
668.000000	 4.666784 
667.000000	 4.540084 
666.000000	 4.592843 
665.000000	 4.721133 
664.000000	 4.840120 
663.000000	 4.929578 
662.000000	 4.987199 
661.000000	 5.010120 
660.000000	 5.001157 
659.000000	 4.966063 
658.000000	 4.899637 
657.000000	 4.796971 
656.000000	 4.687448 
655.000000	 4.617568 
654.000000	 4.607325 
653.000000	 4.628693 
652.000000	 4.637122 
651.000000	 4.632958 
650.000000	 4.644985 

